##########################################################################################
### CosmicWatch: The Desktop Muon Detector
### Questions? saxani@mit.edu
### Comp_date Comp_time Event Ardn_time[ms] ADC[0-1023] SiPM[mV] Deadtime[ms] Temp[C] Name
##########################################################################################
Device ID: CosmicWatch2
1 871 399 87.30 0 22.19
2 981 391 82.35 14 22.19
3 1171 79 20.03 32 22.19
4 2066 152 26.78 50 22.19
5 3153 472 125.87 69 22.19
6 3741 118 23.42 87 22.19
7 3897 255 43.96 108 22.19
8 4465 76 19.69 126 22.19
9 5937 83 20.46 144 22.19
10 5991 73 19.32 162 22.19
11 6138 71 19.06 180 22.19
12 6396 51 15.86 198 22.19
13 9270 358 69.10 216 22.19
14 9886 63 17.91 234 22.19
15 9945 103 22.23 252 22.19
16 10695 249 42.85 270 22.19
17 11134 65 18.22 288 22.19
18 11313 184 31.36 306 22.19
19 11404 110 22.78 324 22.19
20 11934 88 20.96 342 22.19
21 12153 211 35.96 360 22.19
22 12485 159 27.66 378 22.19
23 12740 126 24.09 396 22.19
24 12860 79 20.03 417 22.19
25 12921 56 16.76 435 22.19
26 13057 192 32.67 453 22.19
27 13811 480 130.21 471 22.19
28 15082 103 22.23 489 22.19
29 15562 63 17.91 507 22.19
30 16150 51 15.86 525 22.19
31 16782 120 23.58 543 22.19
32 18530 192 32.67 561 22.19
33 18551 115 23.18 579 22.19
34 19004 71 19.06 597 22.19
35 19261 167 28.76 616 22.19
36 20526 254 43.77 634 22.19
37 21984 224 38.29 652 22.19
38 22140 62 17.75 670 22.19
39 22197 127 24.18 688 22.19
40 22630 62 17.75 706 22.19
41 23080 135 24.92 724 22.19
42 23600 391 82.35 745 22.19
43 24388 56 16.76 763 22.19
44 24673 423 97.36 781 22.19
45 25246 63 17.91 799 22.19
46 26544 49 15.48 817 22.19
47 27483 176 30.09 835 22.19
48 28119 94 21.50 853 22.19
49 29634 81 20.25 871 22.19
50 29841 92 21.32 889 22.19
51 30237 96 21.67 907 22.19
52 30637 56 16.76 925 22.19
53 31247 387 81.05 943 22.19
54 31695 63 17.91 961 22.19
55 31926 152 26.78 979 22.19
56 32108 280 48.67 997 22.19
57 33118 444 109.09 1015 22.19
58 33282 158 27.53 1033 22.19
59 33362 108 22.63 1054 22.19
60 34008 376 76.43 1072 22.19
61 34161 526 158.17 1090 22.19
62 35156 352 66.89 1108 22.19
63 35329 192 32.67 1126 22.19
64 36109 323 58.48 1144 22.19
65 37001 448 112.41 1163 22.19
66 38366 163 28.20 1181 22.19
67 39684 177 30.25 1199 22.19
68 42813 166 28.62 1217 22.19
69 44040 51 15.86 1235 22.19
70 44077 448 112.41 1253 22.19
71 44417 211 35.96 1271 22.19
72 44698 103 22.23 1289 22.19
73 45190 417 95.20 1307 22.19
74 45309 158 27.53 1325 22.19
75 46094 199 33.86 1346 22.19
76 46166 355 68.30 1364 22.19
77 46439 408 90.57 1382 22.19
78 48354 113 23.02 1400 22.19
79 48631 88 20.96 1418 22.19
80 48834 188 32.01 1436 22.19
81 49031 79 20.03 1454 22.19
82 51288 243 41.74 1472 22.19
83 51810 499 141.24 1490 22.19
84 52865 124 23.92 1508 22.19
85 53174 432 101.61 1526 22.19
86 53664 262 45.24 1544 22.19
87 54169 103 22.23 1562 22.19
88 54270 448 112.41 1580 22.19
89 54361 428 101.58 1598 22.19
90 54991 391 82.35 1616 22.19
91 55249 248 42.69 1634 22.19
92 55483 476 129.76 1655 22.19
93 55647 504 143.61 1673 22.19
94 55713 216 36.85 1691 22.19
95 56269 240 41.21 1710 22.19
96 56553 435 104.92 1728 22.19
97 57540 167 28.76 1746 22.19
98 58296 97 21.75 1764 22.19
99 58366 57 16.93 1782 22.19
100 58676 391 82.35 1800 22.19
101 58750 172 29.49 1818 22.19
102 59711 255 43.96 1836 22.19
103 60317 415 95.00 1854 22.19
104 60396 352 66.89 1872 22.19
105 60922 460 119.54 1890 22.19
106 61179 263 45.37 1908 22.19
107 61551 60 17.43 1926 22.19
108 61814 124 23.92 1947 22.19
109 62904 231 39.55 1966 22.19
110 63105 319 57.64 1984 22.19
111 63174 96 21.67 2002 22.19
112 63833 81 20.25 2020 22.19
113 64267 319 57.64 2038 22.19
114 64740 71 19.06 2056 22.19
115 64865 83 20.46 2074 22.19
116 64907 448 112.41 2092 22.19
117 65273 540 166.11 2110 22.19
118 65483 110 22.78 2128 22.19
119 66186 551 164.56 2146 22.19
120 66512 65 18.22 2164 22.19
121 66557 380 78.12 2182 22.19
122 68469 376 76.43 2200 22.19
123 68637 428 101.58 2218 22.19
124 68969 73 19.32 2239 22.19
125 70607 483 132.60 2258 22.19
126 70944 195 33.17 2276 22.19
127 71094 312 55.68 2294 22.19
128 72689 268 46.26 2312 22.19
129 72855 103 22.23 2330 22.19
130 73039 71 19.06 2348 22.19
131 73569 161 27.93 2366 22.19
132 73602 504 143.61 2384 22.19
133 73629 268 46.26 2402 22.19
134 74946 176 30.09 2420 22.19
135 75033 113 23.02 2438 22.19
136 75596 88 20.96 2456 22.19
137 75683 371 73.82 2474 22.19
138 75778 344 64.67 2492 22.19
139 76369 433 104.37 2510 22.19
140 77048 472 125.87 2531 22.19
141 77673 415 95.00 2549 22.19
142 78079 57 16.93 2567 22.19
143 78681 127 24.18 2585 22.19
144 79287 359 69.86 2603 22.19
145 80589 63 17.91 2621 22.19
146 81480 199 33.86 2639 22.19
147 81954 76 19.69 2657 22.19
148 82081 627 249.17 2675 22.19
149 82429 280 48.67 2693 22.19
150 83505 172 29.49 2711 22.19
151 83950 167 28.76 2729 22.19
152 84020 376 76.43 2747 22.19
153 84254 227 38.83 2765 22.19
154 84368 103 22.23 2783 22.19
155 84952 231 39.55 2801 22.19
156 86104 184 31.36 2823 22.19
157 88278 112 22.94 2841 22.19
158 89249 415 95.00 2859 22.19
159 89341 199 33.86 2877 22.19
160 90035 224 38.29 2895 22.19
161 91015 89 21.05 2913 22.19
162 91902 304 53.73 2931 22.19
163 92515 60 17.43 2949 22.19
164 92634 76 19.69 2967 22.19
165 93197 591 188.65 2985 22.19
166 93633 135 24.92 3003 22.19
167 93668 51 15.86 3021 22.19
168 93814 88 20.96 3039 22.19
169 93880 408 90.57 3057 22.19
170 95293 137 25.12 3075 22.19
171 96343 127 24.18 3093 22.19
172 96512 127 24.18 3114 22.19
173 97166 110 22.78 3132 22.19
174 97236 140 25.42 3150 22.19
175 97295 408 90.57 3168 22.19
176 97454 71 19.06 3314 22.19
177 97632 323 58.48 3409 22.19
178 98021 120 23.58 3427 22.19
179 98489 159 27.66 3445 22.19
180 99556 368 72.93 3463 22.19
181 100274 240 41.21 3481 22.19
182 100744 211 35.96 3499 22.19
183 101216 231 39.55 3517 22.19
184 101348 65 18.22 3535 22.19
185 101991 241 41.39 3553 22.19
186 102317 63 17.91 3571 22.19
187 103034 167 28.76 3589 22.19
188 103811 71 19.06 3610 22.19
189 104011 159 27.66 3628 22.19
190 104277 344 64.67 3646 22.19
191 106766 62 17.75 3664 22.19
192 107061 163 28.20 3682 22.19
193 107665 63 17.91 3700 22.19
194 109237 96 21.67 3718 22.19
195 110400 428 101.58 3736 22.19
196 111191 249 42.85 3754 22.19
197 111726 99 21.91 3772 22.19
198 111818 211 35.96 3790 22.19
199 112093 359 69.86 3808 22.19
200 112267 422 97.97 3826 22.19
201 112874 176 30.09 3844 22.19
202 112904 67 18.51 3862 22.19
203 114186 527 155.96 3880 22.19
204 115061 711 380.66 3901 22.19
205 115326 504 143.61 3919 22.19
206 115665 184 31.36 3937 22.19
207 115837 63 17.91 3957 22.19
208 116684 67 18.51 3975 22.19
209 116930 207 35.26 3993 22.19
210 119381 65 18.22 4011 22.19
211 119669 140 25.42 4029 22.19
212 119814 92 21.32 4047 22.19
213 119991 415 95.00 4065 22.19
214 120449 195 33.17 4083 22.19
215 121207 156 27.28 4101 22.19
216 121716 304 53.73 4119 22.19
217 123634 103 22.23 4137 22.19
218 123755 216 36.85 4155 22.19
219 123863 60 17.43 4176 22.19
220 124205 127 24.18 4194 22.19
221 124351 632 232.56 4212 22.19
222 125247 76 19.69 4230 22.19
223 127157 56 16.76 4248 22.19
224 128198 348 65.64 4266 22.19
225 128219 92 21.32 4284 22.19
226 128619 96 21.67 4302 22.19
227 128712 248 42.69 4320 22.29
228 129271 83 20.46 4338 22.19
229 130262 440 109.25 4356 22.29
230 130709 78 19.92 4374 22.19
231 132497 192 32.67 4392 22.29
232 132542 391 82.35 4410 22.19
233 132781 71 19.06 4428 22.29
234 132827 216 36.85 4446 22.29
235 132872 414 93.93 4467 22.19
236 132919 60 17.43 4485 22.19
237 133673 220 37.58 4504 22.19
238 135078 145 25.96 4522 22.19
239 135147 415 95.00 4540 22.19
240 135517 184 31.36 4558 22.29
241 135740 113 23.02 4576 22.19
242 136147 371 73.82 4594 22.29
243 136553 56 16.76 4612 22.19
244 136915 248 42.69 4630 22.19
245 137789 62 17.75 4648 22.19
246 138328 110 22.78 4666 22.29
247 138922 583 201.26 4684 22.19
248 139166 83 20.46 4702 22.19
249 139537 236 40.44 4720 22.19
250 139626 255 43.96 4738 22.19
251 140746 236 40.44 4759 22.29
252 141261 399 87.30 4777 22.19
253 141627 455 117.03 4795 22.29
254 141751 207 35.26 4813 22.19
255 142289 63 17.91 4831 22.29
256 142806 126 24.09 4849 22.19
257 143713 71 19.06 4867 22.19
258 144472 387 81.05 4885 22.19
259 144682 399 87.30 4903 22.29
260 145715 529 156.43 4921 22.19
261 146000 425 99.48 4939 22.19
262 146046 291 50.97 4957 22.29
263 147113 120 23.58 4975 22.40
264 147302 384 80.08 4993 22.19
265 147333 359 69.86 5011 22.40
266 148613 415 95.00 5032 22.29
267 149292 127 24.18 5051 22.40
268 150656 94 21.50 5069 22.29
269 152876 56 16.76 5087 22.19
270 153030 428 101.58 5105 22.29
271 153459 227 38.83 5123 22.40
272 155052 60 17.43 5141 22.29
273 155391 211 35.96 5159 22.29
274 155948 280 48.67 5177 22.19
275 156118 192 32.67 5195 22.40
276 156771 271 46.93 5213 22.40
277 156875 56 16.76 5231 22.51
278 157093 364 71.71 5249 22.40
279 157645 179 30.55 5267 22.40
280 158621 179 30.55 5285 22.40
281 159298 192 32.67 5303 22.40
282 159396 455 117.03 5324 22.51
283 159457 120 23.58 5342 22.51
284 160643 384 80.08 5360 22.51
285 160929 291 50.97 5378 22.40
286 161476 115 23.18 5396 22.51
287 161989 255 43.96 5414 22.19
288 162974 455 117.03 5432 22.51
289 163417 88 20.96 5450 22.51
290 163717 120 23.58 5468 22.51
291 164055 207 35.26 5486 22.29
292 164202 110 22.78 5504 22.40
293 165582 263 45.37 5522 22.19
294 165941 422 97.97 5540 22.29
295 166126 54 16.41 5558 22.51
296 166698 657 260.46 5576 22.19
297 167151 63 17.91 5598 22.40
298 168019 86 20.77 5616 22.19
299 169481 209 35.61 5634 22.51
300 169697 185 31.51 5652 22.40
301 170034 449 112.05 5670 22.51
302 170754 172 29.49 5688 22.51
303 171251 376 76.43 5706 22.51
304 171277 176 30.09 5724 22.51
305 171390 56 16.76 5742 22.51
306 171994 143 25.74 5760 22.40
307 172989 167 28.76 5778 22.29
308 173033 62 17.75 5796 22.51
309 173650 412 92.93 5814 22.51
310 174441 71 19.06 5832 22.51
311 175165 384 80.08 5850 22.51
312 175542 364 71.71 5868 22.51
313 176340 369 73.42 5889 22.51
314 176393 96 21.67 5907 22.51
315 176697 305 53.88 5925 22.19
316 177934 440 109.25 5943 22.51
317 178046 632 232.56 5961 22.40
318 178694 216 36.85 5979 22.51
319 178997 184 31.36 5997 22.51
320 179055 71 19.06 6015 22.19
321 179085 271 46.93 6033 22.51
322 179191 195 33.17 6051 22.51
323 180417 159 27.66 6069 22.51
324 181124 103 22.23 6087 22.51
325 181235 319 57.64 6105 22.51
326 181760 76 19.69 6123 22.51
327 181786 76 19.69 6141 22.40
328 182140 742 406.60 6160 22.51
329 183197 184 31.36 6181 22.51
330 183956 463 119.23 6199 22.51
331 185413 327 59.28 6217 22.51
332 186033 241 41.39 6235 22.51
333 186064 428 101.58 6253 22.51
334 186183 295 51.75 6271 22.51
335 187962 280 48.67 6289 22.51
336 188208 71 19.06 6307 22.29
337 188806 49 15.48 6325 22.51
338 188985 135 24.92 6343 22.51
339 189726 398 85.63 6361 22.51
340 190235 391 82.35 6379 22.51
341 190439 240 41.21 6397 22.19
342 190544 49 15.48 6415 22.40
343 191426 127 24.18 6433 22.51
344 192153 79 20.03 6454 22.40
345 192251 88 20.96 6472 22.51
346 192303 71 19.06 6490 22.51
347 192345 259 44.69 6508 22.51
348 192397 460 119.54 6526 22.51
349 193142 195 33.17 6544 22.51
350 193831 399 87.30 6562 22.72
351 194650 115 23.18 6580 22.40
352 194780 57 16.93 6598 22.51
353 194848 432 101.61 6616 22.51
354 195081 51 15.86 6634 22.40
355 195744 131 24.54 6652 22.51
356 197696 99 21.91 6670 22.72
357 198844 135 24.92 6688 22.40
358 199883 76 19.69 6707 22.29
359 199990 238 40.82 6725 22.19
360 200275 60 17.43 6746 22.40
361 200756 263 45.37 6764 22.51
362 200939 240 41.21 6782 22.51
363 201014 63 17.91 6800 22.51
364 201222 92 21.32 6818 22.94
365 201604 435 104.92 6836 23.15
366 201799 419 97.20 6854 22.40
367 201915 103 22.23 6872 22.51
368 201985 604 210.97 6890 22.40
369 202075 83 20.46 6908 22.51
370 203076 177 30.25 6926 22.19
371 203516 304 53.73 6944 22.94
372 203965 184 31.36 6962 22.29
373 204314 127 24.18 6980 22.51
374 206854 376 76.43 6998 22.40
375 207408 159 27.66 7019 22.94
376 208809 88 20.96 7037 22.40
377 209279 291 50.97 7055 22.40
378 210042 384 80.08 7073 22.51
379 210137 166 28.62 7091 22.94
380 210283 92 21.32 7109 22.51
381 210927 71 19.06 7127 22.51
382 211246 721 433.48 7145 22.72
383 211968 371 73.82 7163 22.51
384 212356 79 20.03 7181 22.51
385 213097 664 270.86 7199 22.72
386 214055 70 18.93 7217 22.51
387 214602 391 82.35 7235 22.51
388 215094 62 17.75 7254 22.94
389 215255 174 29.79 7272 22.51
390 215430 56 16.76 7290 22.51
391 215511 67 18.51 7311 22.94
392 215592 60 17.43 7329 22.72
393 215991 345 64.98 7347 22.51
394 216136 371 73.82 7365 22.40
395 216436 71 19.06 7383 22.51
396 216583 76 19.69 7401 22.51
397 217217 102 22.15 7419 22.51
398 217377 110 22.78 7437 22.51
399 218101 376 76.43 7455 22.51
400 219438 236 40.44 7473 22.51
401 220197 248 42.69 7491 22.72
402 221676 204 34.73 7509 22.72
403 222068 56 16.76 7527 22.51
404 222462 88 20.96 7545 22.51
405 222806 355 68.30 7563 22.94
406 223574 211 35.96 7581 22.72
407 223996 192 32.67 7602 22.72
408 224266 79 20.03 7620 22.72
409 225187 71 19.06 7638 22.72
410 225210 380 78.12 7656 22.29
411 225327 211 35.96 7674 22.51
412 225954 63 17.91 7692 22.51
413 226442 51 15.86 7710 22.40
414 226479 62 17.75 7728 22.29
415 226631 159 27.66 7746 22.94
416 227219 88 20.96 7764 22.40
417 227582 241 41.39 7782 22.51
418 227771 486 135.98 7801 22.51
419 227827 435 104.92 7819 22.51
420 227958 71 19.06 7837 22.51
421 228303 112 22.94 7855 22.51
422 228521 326 59.13 7876 22.72
423 228866 143 25.74 7894 22.51
424 229359 49 15.48 7917 22.51
425 229402 49 15.48 7935 22.51
426 230202 134 24.82 7953 22.51
427 230822 63 17.91 7971 22.72
428 230865 126 24.09 7989 22.72
429 230915 108 22.63 8007 22.51
430 231248 291 50.97 8025 22.94
431 232410 704 326.52 8043 22.51
432 232584 60 17.43 8061 22.51
433 232829 255 43.96 8079 22.72
434 233266 207 35.26 8097 22.51
435 233339 304 53.73 8115 22.51
436 233952 304 53.73 8133 22.51
437 234697 417 95.20 8151 22.51
438 235299 423 97.36 8172 22.51
439 235626 79 20.03 8190 22.51
440 235862 422 97.97 8208 23.15
441 236331 472 125.87 8226 22.51
442 236593 92 21.32 8244 22.94
443 236959 112 22.94 8262 22.72
444 237555 88 20.96 8280 22.51
445 237612 384 80.08 8298 22.72
446 238150 96 21.67 8316 22.51
447 238261 124 23.92 8334 22.94
448 238538 399 87.30 8353 22.72
449 239166 63 17.91 8371 23.15
450 239786 113 23.02 8389 22.51
451 239987 295 51.75 8407 22.51
452 240762 201 34.22 8425 22.72
453 241476 49 15.48 8443 23.15
454 242269 51 15.86 8464 22.51
455 242617 451 113.08 8482 23.15
456 244594 440 109.25 8500 22.51
457 244773 76 19.69 8518 22.72
458 244889 312 55.68 8536 23.15
459 245029 430 101.41 8554 22.51
460 245139 67 18.51 8572 23.15
461 245604 323 58.48 8590 22.72
462 245932 307 54.48 8608 22.94
463 246032 312 55.68 8626 22.51
464 246142 449 112.05 8644 22.51
465 246743 280 48.67 8662 22.51
466 248187 248 42.69 8680 22.94
467 249972 103 22.23 8698 22.51
468 250599 595 212.63 8716 22.51
469 250866 174 29.79 8737 23.15
470 251889 56 16.76 8755 22.72
471 253815 711 380.66 8773 22.72
472 254032 280 48.67 8791 22.72
473 254155 124 23.92 8809 22.94
474 254311 92 21.32 8827 22.94
475 256140 71 19.06 8845 22.51
476 258040 60 17.43 8863 22.72
477 259076 56 16.76 8881 22.51
478 259268 60 17.43 8900 22.51
479 259780 115 23.18 8918 22.51
480 260101 71 19.06 8936 22.51
481 261017 167 28.76 8954 22.94
482 261428 99 21.91 8972 22.51
483 261472 56 16.76 8990 22.51
484 261715 67 18.51 9008 22.51
485 262153 167 28.76 9029 23.15
486 262689 304 53.73 9047 23.15
487 262971 236 40.44 9065 23.15
488 263554 398 85.63 9083 22.72
489 264440 63 17.91 9101 22.94
490 264518 423 97.36 9119 23.15
491 265966 88 20.96 9137 22.72
492 266308 54 16.41 9155 22.72
493 266857 252 43.42 9173 22.94
494 269233 96 21.67 9191 22.72
495 269426 103 22.23 9209 23.15
496 270610 49 15.48 9227 22.72
497 270670 551 164.56 9245 22.94
498 270731 110 22.78 9263 23.15
499 270935 51 15.86 9281 23.15
500 271483 268 46.26 9299 22.94
501 271554 79 20.03 9320 22.51
502 272590 408 90.57 9338 22.72
503 273752 396 85.28 9356 22.72
504 273843 60 17.43 9374 23.15
505 274000 145 25.96 9392 22.51
506 274479 304 53.73 9410 22.94
507 274924 199 33.86 9428 22.72
508 275382 304 53.73 9446 22.72
509 275802 497 142.37 9465 22.51
510 275846 118 23.42 9483 23.15
511 275885 88 20.96 9501 23.15
512 275919 115 23.18 9519 22.72
513 277246 476 129.76 9537 22.72
514 277944 384 80.08 9555 23.15
515 278120 455 117.03 9573 23.15
516 278178 80 20.14 9594 23.15
517 278734 103 22.23 9612 23.15
518 279002 60 17.43 9630 22.51
519 279695 391 82.35 9648 22.72
520 280228 63 17.91 9666 23.15
521 280253 199 33.86 9684 22.72
522 281567 206 35.07 9702 23.15
523 283275 255 43.96 9720 22.94
524 283912 71 19.06 9738 22.72
525 284289 159 27.66 9756 22.94
526 284730 140 25.42 9774 23.15
527 287126 207 35.26 9792 23.15
528 287584 412 92.93 9810 23.15
529 287968 156 27.28 9828 22.72
530 288110 67 18.51 9846 23.15
531 288443 108 22.63 9864 23.15
532 288689 76 19.69 9885 22.94
533 288964 463 119.23 9903 22.94
534 289132 408 90.57 9921 23.15
535 289768 92 21.32 9939 23.15
536 290957 115 23.18 9957 22.72
537 291193 254 43.77 9975 23.15
538 291634 67 18.51 9993 22.94
539 292217 448 112.41 10012 22.94
540 292886 67 18.51 10030 22.51
541 293134 408 90.57 10048 23.15
542 293167 496 144.49 10066 22.94
543 293935 108 22.63 10084 23.15
544 294089 159 27.66 10102 23.15
545 294272 344 64.67 10120 23.15
546 294294 236 40.44 10138 23.15
547 294390 49 15.48 10159 23.15
548 295978 49 15.48 10177 22.94
549 296469 467 121.56 10195 22.72
550 296959 120 23.58 10213 22.94
551 298192 318 57.28 10231 22.72
552 298395 231 39.55 10249 23.15
553 298574 240 41.21 10267 23.15
554 299060 271 46.93 10285 23.15
555 299963 670 272.62 10303 23.15
556 300377 172 29.49 10321 22.72
557 301217 519 154.30 10339 23.15
558 301483 224 38.29 10357 23.15
559 301643 312 55.68 10375 22.72
560 301747 284 49.41 10393 22.94
561 302123 460 119.54 10411 22.51
562 302729 355 68.30 10432 23.15
563 302937 120 23.58 10450 22.51
564 303552 176 30.09 10468 22.94
565 303851 176 30.09 10486 22.94
566 304778 120 23.58 10504 23.15
567 304871 143 25.74 10522 22.72
568 305040 737 467.99 10540 23.15
569 305366 280 48.67 10559 23.15
570 305478 448 112.41 10577 22.94
571 306109 188 32.01 10595 23.15
572 306580 371 73.82 10613 22.51
573 307054 527 155.96 10631 23.15
574 307531 472 125.87 10649 23.15
575 308907 124 23.92 10667 22.94
576 309661 63 17.91 10685 22.94
577 310506 419 97.20 10706 22.94
578 310550 71 19.06 10724 22.72
579 310932 280 48.67 10742 23.15
580 313182 319 57.64 10760 23.15
581 313570 327 59.28 10778 23.15
582 314600 384 80.08 10796 23.15
583 316666 391 82.35 10814 23.15
584 317184 432 101.61 10832 22.94
585 317227 211 35.96 10850 23.15
586 317389 96 21.67 10868 23.15
587 317492 60 17.43 10886 23.15
588 317630 56 16.76 10904 22.94
589 317796 216 36.85 10922 23.15
590 318077 96 21.67 10940 22.94
591 319523 688 328.69 10958 22.94
592 319705 127 24.18 10979 22.94
593 319775 135 24.92 10997 22.94
594 320248 355 68.30 11015 23.15
595 320295 135 24.92 11033 23.15
596 320632 67 18.51 11051 22.94
597 321823 192 32.67 11069 23.15
598 322384 56 16.76 11087 22.94
599 323151 263 45.37 11106 22.72
600 323338 207 35.26 11124 22.94
601 323493 152 26.78 11142 23.15
602 324231 56 16.76 11160 23.15
603 324261 96 21.67 11178 22.94
604 324280 108 22.63 11196 23.15
605 324747 575 187.30 11211 22.72
606 326156 368 72.93 11229 23.15
607 326433 192 32.67 11250 22.94
608 327281 167 28.76 11268 22.51
609 327683 147 26.19 11286 23.15
610 328362 241 41.39 11304 23.15
611 329428 71 19.06 11322 22.72
612 329955 108 22.63 11340 23.15
613 330047 51 15.86 11358 23.15
614 330288 112 22.94 11376 22.72
615 330326 103 22.23 11394 22.72
616 330628 476 129.76 11412 23.15
617 331003 159 27.66 11430 23.15
618 331274 736 412.77 11448 22.72
619 331446 231 39.55 11466 23.15
620 331596 287 50.23 11484 23.15
621 332430 435 104.92 11502 23.15
622 332734 60 17.43 11523 23.15
623 332769 60 17.43 11541 23.15
624 332902 295 51.75 11559 22.72
625 333578 220 37.58 11577 23.15
626 334402 96 21.67 11595 23.15
627 334428 63 17.91 11613 23.15
628 334692 115 23.18 11631 23.15
629 335522 49 15.48 11650 23.15
630 335638 83 20.46 11668 23.15
631 336245 192 32.67 11686 23.15
632 336585 135 24.92 11704 23.15
633 336612 199 33.86 11722 23.15
634 338818 60 17.43 11740 22.94
635 339861 88 20.96 11758 23.15
636 339885 92 21.32 11776 23.15
637 340902 457 118.95 11794 23.15
638 341380 440 109.25 11815 22.94
639 341436 51 15.86 11833 23.15
640 341475 71 19.06 11851 23.15
641 341867 463 119.23 11869 23.15
642 342403 188 32.01 11887 23.15
643 342616 460 119.54 11905 23.15
644 342748 92 21.32 11923 23.15
645 343010 63 17.91 11941 23.15
646 343054 376 76.43 11959 22.72
647 343309 312 55.68 11977 23.15
648 344337 184 31.36 11995 23.15
649 344611 255 43.96 12013 23.15
650 345106 337 62.30 12031 23.15
651 345191 412 92.93 12049 23.15
652 345951 63 17.91 12067 23.15
653 346080 56 16.76 12088 23.15
654 346574 62 17.75 12106 23.15
655 346976 60 17.43 12124 23.15
656 347027 319 57.64 12142 23.15
657 347179 70 18.93 12160 23.15
658 347309 120 23.58 12178 23.15
659 348112 752 487.99 12197 23.15
660 348151 611 211.89 12215 22.72
661 348301 423 97.36 12233 23.15
662 348809 207 35.26 12251 23.15
663 348950 96 21.67 12269 23.15
664 349147 252 43.42 12287 23.15
665 350020 159 27.66 12305 23.15
666 350118 94 21.50 12323 22.94
667 350227 263 45.37 12341 23.15
668 350970 103 22.23 12362 23.15
669 351267 422 97.97 12380 23.15
670 351507 231 39.55 12398 23.15
671 351913 76 19.69 12416 23.15
672 352019 56 16.76 12439 23.15
673 352516 89 21.05 12457 23.15
674 352567 79 20.03 12475 23.15
675 352847 79 20.03 12493 23.15
676 353547 83 20.46 12511 22.94
677 354068 63 17.91 12529 23.15
678 354498 83 20.46 12547 22.94
679 358884 78 19.92 12565 23.15
680 359079 63 17.91 12583 23.15
681 360174 216 36.85 12601 23.15
682 360885 76 19.69 12619 23.15
683 360987 339 62.98 12640 23.15
684 361109 79 20.03 12658 23.15
685 361441 224 38.29 12676 22.72
686 362248 76 19.69 12694 23.15
687 362666 51 15.86 12712 23.15
688 363480 56 16.76 12730 23.15
689 363634 88 20.96 12749 23.15
690 363806 291 50.97 12767 23.15
691 365765 51 15.86 12785 22.72
692 365824 108 22.63 12803 23.15
693 365975 108 22.63 12821 23.15
694 366086 60 17.43 12839 23.15
695 366759 167 28.76 12857 23.15
696 366856 60 17.43 12875 23.15
697 367145 409 91.12 12893 23.15
698 367223 76 19.69 12911 23.15
699 367245 143 25.74 12932 23.15
700 367295 81 20.25 12947 23.15
701 368315 172 29.49 12965 23.15
702 369374 159 27.66 12983 23.15
703 370963 179 30.55 13001 23.15
704 371196 172 29.49 13019 23.15
705 372007 384 80.08 13037 23.15
706 372063 480 130.21 13055 23.15
707 372586 241 41.39 13073 23.15
708 374436 176 30.09 13091 23.15
709 374887 327 59.28 13109 22.72
710 378284 88 20.96 13127 23.15
711 378766 335 61.77 13145 23.15
712 380299 79 20.03 13163 23.15
713 380368 211 35.96 13181 23.15
714 380833 71 19.06 13202 23.15
715 381028 255 43.96 13220 23.15
716 381536 396 85.28 13238 23.15
717 382148 78 19.92 13256 23.15
718 382284 415 95.00 13274 23.15
719 382641 51 15.86 13293 23.15
720 382706 103 22.23 13311 23.15
721 382809 387 81.05 13329 23.15
722 383536 78 19.92 13347 23.15
723 383645 467 121.56 13365 23.15
724 384085 156 27.28 13383 23.15
725 385510 51 15.86 13401 23.15
726 385875 206 35.07 13419 23.15
727 386555 396 85.28 13437 23.15
728 386722 99 21.91 13455 23.15
729 387235 238 40.82 13476 23.15
730 388156 96 21.67 13494 23.15
731 388505 147 26.19 13512 23.15
732 389487 152 26.78 13530 23.15
733 389640 144 25.85 13548 23.15
734 390197 71 19.06 13566 23.15
735 391009 70 18.93 13584 23.15
736 391489 115 23.18 13602 23.15
737 392395 472 125.87 13620 23.15
738 392490 238 40.82 13638 23.15
739 394515 736 412.77 13656 23.15
740 395661 97 21.75 13674 23.15
741 396221 88 20.96 13692 23.15
742 397022 399 87.30 13710 23.15
743 397658 312 55.68 13728 23.15
744 397949 527 155.96 13749 23.15
745 398277 76 19.69 13767 23.15
746 398399 280 48.67 13785 23.15
747 398601 487 132.65 13803 23.15
748 398649 76 19.69 13821 23.15
749 399282 63 17.91 13839 23.15
750 399320 391 82.35 13858 23.15
751 400551 355 68.30 13876 23.15
752 400738 108 22.63 13894 23.15
753 401043 88 20.96 13912 23.15
754 401227 120 23.58 13930 23.15
755 401293 176 30.09 13948 23.15
756 401819 79 20.03 13966 23.15
757 402966 472 125.87 13984 23.15
758 403576 575 187.30 14002 23.15
759 404000 76 19.69 14023 23.48
760 404808 467 121.56 14041 23.15
761 405961 255 43.96 14059 23.15
762 406190 799 620.61 14077 23.15
763 406558 56 16.76 14095 23.48
764 408280 92 21.32 14113 23.15
765 408593 478 129.43 14131 23.15
766 408787 124 23.92 14149 23.15
767 409562 225 38.48 14167 23.15
768 410601 135 24.92 14185 23.15
769 411763 103 22.23 14203 23.15
770 412542 60 17.43 14221 23.15
771 412880 177 30.25 14239 23.15
772 413025 384 80.08 14257 23.15
773 413291 542 168.67 14275 23.15
774 414020 204 34.73 14296 23.48
775 414328 240 41.21 14314 23.15
776 414806 63 17.91 14332 23.15
777 415432 56 16.76 14350 23.15
778 416213 56 16.76 14368 23.15
779 416319 476 129.76 14386 23.15
780 416478 403 88.99 14405 23.48
781 416899 192 32.67 14423 23.15
782 417433 92 21.32 14441 23.15
783 418292 188 32.01 14459 23.15
784 418958 97 21.75 14477 23.15
785 419524 508 144.95 14495 23.15
786 419846 248 42.69 14513 23.15
787 420433 198 33.69 14531 23.15
788 420755 403 88.99 14549 23.15
789 421055 455 117.03 14570 23.15
790 421324 144 25.85 14588 23.15
791 422738 231 39.55 14606 23.15
792 423549 167 28.76 14624 23.15
793 424080 124 23.92 14642 23.15
794 424210 376 76.43 14660 23.48
795 424325 204 34.73 14678 23.15
796 424986 140 25.42 14696 23.15
797 426346 472 125.87 14714 23.15
798 427706 369 73.42 14732 23.15
799 427943 115 23.18 14750 23.15
800 428617 96 21.67 14768 23.15
801 429347 76 19.69 14786 23.15
802 429576 49 15.48 14804 23.15
803 429725 83 20.46 14822 23.15
804 430475 243 41.74 14840 23.15
805 430890 435 104.92 14854 23.15
806 431199 56 16.76 14872 23.15
807 431327 337 62.30 14890 23.15
808 431935 70 18.93 14908 23.15
809 432029 376 76.43 14926 23.15
810 432569 110 22.78 14945 23.15
811 433030 184 31.36 14963 23.15
812 433563 294 51.51 14981 23.48
813 436497 451 113.08 14999 23.15
814 437140 304 53.73 15017 23.15
815 437690 384 80.08 15035 23.15
816 438770 143 25.74 15053 23.15
817 439327 83 20.46 15071 23.15
818 439528 380 78.12 15089 23.15
819 439755 207 35.26 15107 23.15
820 439848 56 16.76 15128 23.15
821 441405 71 19.06 15146 23.15
822 441718 472 125.87 15164 23.48
823 442304 158 27.53 15182 23.15
824 442858 112 22.94 15200 23.15
825 443105 227 38.83 15218 23.15
826 443863 600 203.87 15236 23.15
827 446054 248 42.69 15254 23.15
828 446181 96 21.67 15272 23.15
829 446223 480 130.21 15290 23.48
830 446591 462 120.87 15308 23.15
831 446847 156 27.28 15326 23.15
832 447038 152 26.78 15344 23.15
833 447111 67 18.51 15362 23.15
834 448037 480 130.21 15380 23.15
835 448397 312 55.68 15401 23.48
836 448768 152 26.78 15419 23.15
837 448826 252 43.42 15437 23.48
838 449725 398 85.63 15455 23.48
839 451042 56 16.76 15473 23.15
840 451073 63 17.91 15492 23.15
841 451135 48 15.29 15510 23.80
842 451304 588 183.26 15528 23.15
843 451581 195 33.17 15546 23.15
844 451797 176 30.09 15564 24.12
845 452375 211 35.96 15582 23.15
846 452723 177 30.25 15600 23.15
847 452814 103 22.23 15618 23.15
848 452932 76 19.69 15636 23.80
849 453105 224 38.29 15654 23.15
850 453164 275 47.73 15675 23.15
851 454336 220 37.58 15693 24.12
852 454660 696 307.73 15711 23.48
853 454961 103 22.23 15729 23.15
854 455086 110 22.78 15747 23.80
855 455444 115 23.18 15765 23.15
856 455636 60 17.43 15783 23.15
857 455985 92 21.32 15801 23.15
858 456632 76 19.69 15819 23.15
859 457024 92 21.32 15837 23.48
860 457070 391 82.35 15855 23.15
861 457245 543 164.77 15873 23.15
862 457347 56 16.76 15891 23.80
863 458581 284 49.41 15909 23.48
864 459444 312 55.68 15927 23.48
865 460671 192 32.67 15948 23.80
866 460854 99 21.91 15966 23.15
867 461470 94 21.50 15984 23.15
868 461647 177 30.25 16002 23.48
869 462143 161 27.93 16020 23.48
870 462681 455 117.03 16038 23.15
871 463091 384 80.08 16057 23.15
872 463216 63 17.91 16075 23.15
873 463556 88 20.96 16093 23.15
874 464775 79 20.03 16111 23.15
875 465420 131 24.54 16129 23.80
876 465848 81 20.25 16147 23.80
877 465902 102 22.15 16165 23.15
878 467159 147 26.19 16183 23.15
879 467624 353 67.64 16201 23.15
880 467925 295 51.75 16222 23.15
881 468112 423 97.36 16240 23.15
882 469089 368 72.93 16258 23.15
883 469246 615 227.36 16276 23.80
884 469830 359 69.86 16294 23.48
885 471299 56 16.76 16312 23.15
886 472119 71 19.06 16330 24.12
887 472572 83 20.46 16348 23.15
888 472803 51 15.86 16366 23.15
889 473875 414 93.93 16384 23.15
890 474964 399 87.30 16402 23.91
891 475593 364 71.71 16420 23.15
892 475956 556 174.47 16438 23.15
893 476022 83 20.46 16456 23.15
894 476598 239 41.02 16474 23.15
895 476643 67 18.51 16495 23.48
896 477501 248 42.69 16513 23.15
897 477532 399 87.30 16531 23.15
898 478023 92 21.32 16549 23.80
899 479122 467 121.56 16567 23.15
900 479423 625 226.08 16585 23.15
901 479719 152 26.78 16604 23.15
902 479899 339 62.98 16622 23.15
903 479937 448 112.41 16640 24.12
904 480738 364 71.71 16658 23.48
905 481283 56 16.76 16676 23.15
906 481561 92 21.32 16694 24.12
907 481896 105 22.39 16712 23.15
908 481965 248 42.69 16730 23.48
909 482247 113 23.02 16748 23.15
910 482533 135 24.92 16769 23.15
911 482903 248 42.69 16787 23.48
912 483250 688 328.69 16805 23.15
913 483531 323 58.48 16823 23.15
914 484204 335 61.77 16841 23.15
915 484337 679 318.29 16859 23.15
916 484907 231 39.55 16877 23.48
917 484928 327 59.28 16895 23.15
918 486800 96 21.67 16913 23.15
919 488729 51 15.86 16931 23.15
920 489108 417 95.20 16954 23.15
921 490291 71 19.06 17160 23.15
922 491107 391 82.35 17179 24.12
923 491849 120 23.58 17197 23.48
924 491987 385 80.11 17215 23.48
925 492306 96 21.67 17236 23.15
926 492422 184 31.36 17254 23.80
927 493201 174 29.79 17272 23.15
928 493306 463 119.23 17290 23.15
929 493479 126 24.09 17308 23.15
930 493887 79 20.03 17326 23.15
931 495298 112 22.94 17344 23.15
932 495400 60 17.43 17362 24.12
933 496335 137 25.12 17380 24.12
934 497559 423 97.36 17398 23.15
935 497892 103 22.23 17416 23.15
936 499089 166 28.62 17434 23.48
937 499934 88 20.96 17452 23.80
938 501402 94 21.50 17470 23.15
939 502219 476 129.76 17488 23.80
940 502534 113 23.02 17506 23.15
941 502651 112 22.94 17527 23.15
942 503058 192 32.67 17545 23.15
943 503415 423 97.36 17563 23.91
944 503819 295 51.75 17581 23.48
945 504404 51 15.86 17599 23.80
946 504658 368 72.93 17617 23.15
947 505866 60 17.43 17635 23.91
948 506849 417 95.20 17653 23.15
949 507273 176 30.09 17671 23.15
950 507406 393 83.55 17689 23.15
951 508030 71 19.06 17709 24.23
952 509013 270 46.71 17727 23.15
953 509039 193 32.84 17745 23.15
954 509075 216 36.85 17763 23.91
955 509550 174 29.79 17781 23.80
956 509691 83 20.46 17802 23.80
957 509787 127 24.18 17820 23.15
958 511173 56 16.76 17838 23.15
959 511541 56 16.76 17856 23.15
960 511775 271 46.93 17874 23.15
961 511901 271 46.93 17892 23.15
962 511930 359 69.86 17910 23.91
963 512665 391 82.35 17928 23.48
964 513868 67 18.51 17946 23.48
965 515397 88 20.96 17964 23.15
966 515524 79 20.03 17982 23.91
967 516766 176 30.09 18000 23.48
968 516999 472 125.87 18018 24.44
969 518042 423 97.36 18036 23.15
970 518222 225 38.48 18054 23.91
971 518293 51 15.86 18075 23.91
972 518951 353 67.64 18093 23.15
973 519265 142 25.64 18111 23.48
974 519651 80 20.14 18129 24.23
975 520532 161 27.93 18147 23.15
976 520565 472 125.87 18165 23.15
977 520602 167 28.76 18183 23.80
978 520922 63 17.91 18201 23.15
979 521310 193 32.84 18219 23.48
980 521342 268 46.26 18237 23.48
981 521582 236 40.44 18256 23.15
982 521906 207 35.26 18274 23.91
983 522335 313 56.02 18292 23.48
984 522656 56 16.76 18310 23.15
985 523234 319 57.64 18328 24.12
986 523354 56 16.76 18357 23.15
987 523612 312 55.68 18375 23.15
988 523685 318 57.28 18393 24.12
989 523963 217 37.04 18411 24.23
990 524142 263 45.37 18429 23.48
991 524474 415 95.00 18447 23.91
992 526029 49 15.48 18465 23.15
993 526378 465 122.12 18483 24.34
994 526576 56 16.76 18501 24.12
995 527211 159 27.66 18519 23.15
996 528419 263 45.37 18537 23.48
997 529248 127 24.18 18555 23.15
998 529300 403 88.99 18573 23.15
999 529668 463 119.23 18591 23.15
1000 530247 472 125.87 18609 23.80
1001 530482 179 30.55 18630 23.80
1002 530765 71 19.06 18648 23.48
1003 530818 112 22.94 18666 23.80
1004 531737 480 130.21 18684 23.91
1005 532040 76 19.69 18702 23.48
1006 532865 716 337.96 18720 23.80
1007 534190 192 32.67 18738 23.48
1008 534229 113 23.02 18756 24.12
1009 535474 390 82.70 18774 23.80
1010 535990 51 15.86 18793 23.80
1011 536254 54 16.41 18811 24.12
1012 536428 167 28.76 18829 23.80
1013 536822 192 32.67 18847 24.34
1014 537741 295 51.75 18865 23.48
1015 538246 355 68.30 18883 23.80
1016 538789 243 41.74 18904 23.48
1017 538854 408 90.57 18922 23.15
1018 540490 376 76.43 18940 23.48
1019 540687 79 20.03 18958 24.12
1020 541784 159 27.66 18976 24.44
1021 541977 199 33.86 18994 24.12
1022 544543 348 65.64 19012 23.48
1023 544570 67 18.51 19030 24.34
1024 545018 480 130.21 19048 23.15
1025 545615 536 160.18 19066 23.80
1026 546059 204 34.73 19084 23.15
1027 546740 396 85.28 19102 23.15
1028 547143 120 23.58 19120 23.48
1029 549634 359 69.86 19138 24.12
1030 549795 156 27.28 19159 23.91
1031 551354 96 21.67 19177 23.48
1032 551534 440 109.25 19195 24.12
1033 552452 71 19.06 19213 23.91
1034 552521 583 201.26 19231 23.15
1035 553123 620 217.12 19249 23.15
1036 553515 326 59.13 19267 24.34
1037 554337 71 19.06 19285 24.23
1038 554552 140 25.42 19303 24.44
1039 555004 332 61.17 19321 23.48
1040 555137 359 69.86 19340 24.44
1041 556150 384 80.08 19358 24.34
1042 556374 65 18.22 19376 23.15
1043 559019 364 71.71 19394 23.80
1044 559233 263 45.37 19412 24.12
1045 559291 335 61.77 19433 24.44
1046 559375 79 20.03 19451 23.15
1047 559443 134 24.82 19469 23.80
1048 560309 51 15.86 19487 23.80
1049 560734 71 19.06 19505 24.34
1050 562095 664 270.86 19523 23.48
1051 562145 268 46.26 19541 24.34
1052 563423 448 112.41 19559 23.15
1053 563756 236 40.44 19577 23.80
1054 563794 103 22.23 19595 24.44
1055 564367 497 142.37 19613 23.48
1056 564433 51 15.86 19631 23.80
1057 565204 195 33.17 19649 24.44
1058 565305 295 51.75 19667 24.44
1059 565870 56 16.76 19685 23.80
1060 565944 460 119.54 19706 23.48
1061 566412 646 271.78 19724 23.15
1062 566531 60 17.43 19742 23.48
1063 567113 224 38.29 19760 24.34
1064 567281 145 25.96 19778 23.80
1065 567629 496 144.49 19796 23.48
1066 568014 120 23.58 19814 23.48
1067 568172 204 34.73 19832 24.23
1068 569164 113 23.02 19850 23.15
1069 569936 304 53.73 19868 24.44
1070 569995 625 226.08 19887 23.48
1071 570283 231 39.55 19905 24.12
1072 570584 526 158.17 19923 23.15
1073 571020 280 48.67 19941 23.80
1074 571389 63 17.91 19962 24.23
1075 571657 376 76.43 19980 23.80
1076 571984 280 48.67 19998 24.23
1077 572193 240 41.21 20016 24.44
1078 572552 110 22.78 20034 23.48
1079 572840 339 62.98 20052 24.44
1080 573185 435 104.92 20070 23.48
1081 573777 115 23.18 20088 23.15
1082 575520 449 112.05 20106 24.23
1083 576126 67 18.51 20124 23.48
1084 576496 486 135.98 20142 23.26
1085 577362 364 71.71 20160 24.34
1086 577412 108 22.63 20178 24.23
1087 577574 199 33.86 20196 24.23
1088 577909 448 112.41 20214 23.91
1089 578564 391 82.35 20235 23.48
1090 578764 368 72.93 20253 24.12
1091 579065 201 34.22 20271 24.34
1092 579376 177 30.25 20289 24.12
1093 579664 451 113.08 20307 24.12
1094 580716 384 80.08 20325 24.44
1095 580932 415 95.00 20343 24.23
1096 581299 263 45.37 20361 24.12
1097 583009 99 21.91 20379 23.91
1098 583407 63 17.91 20397 23.91
1099 583429 207 35.26 20415 23.58
1100 583594 56 16.76 20434 23.15
1101 584828 120 23.58 20452 23.80
1102 585574 113 23.02 20470 24.12
1103 585812 195 33.17 20488 24.12
1104 586035 110 22.78 20509 24.12
1105 586771 67 18.51 20527 24.34
1106 586956 92 21.32 20545 23.80
1107 587046 204 34.73 20563 24.34
1108 587195 412 92.93 20581 24.23
1109 587593 79 20.03 20599 24.12
1110 588511 515 147.53 20617 24.44
1111 588581 295 51.75 20635 24.23
1112 588705 359 69.86 20653 24.23
1113 588747 332 61.17 20671 23.91
1114 588935 368 72.93 20689 24.34
1115 588988 188 32.01 20707 23.48
1116 589257 92 21.32 20725 24.12
1117 589440 71 19.06 20743 24.44
1118 589588 316 56.81 20764 24.44
1119 589630 63 17.91 20782 24.34
1120 589996 188 32.01 20800 24.34
1121 591285 120 23.58 20818 24.44
1122 592716 454 115.28 20836 23.80
1123 593272 159 27.66 20854 24.44
1124 593644 574 181.47 20872 24.34
1125 593839 120 23.58 20890 24.34
1126 595399 127 24.18 20908 24.44
1127 596402 224 38.29 20926 24.44
1128 596613 227 38.83 20944 24.34
1129 597019 63 17.91 20962 24.12
1130 597984 71 19.06 20980 24.44
1131 598594 167 28.76 20999 24.44
1132 598731 463 119.23 21017 24.44
1133 599089 99 21.91 21038 24.34
1134 599689 248 42.69 21056 24.34
1135 599947 472 125.87 21074 24.12
1136 600488 403 88.99 21092 24.12
1137 601518 51 15.86 21110 24.34
1138 601613 318 57.28 21128 24.12
1139 601755 423 97.36 21146 24.12
1140 601805 179 30.55 21164 24.12
1141 602212 78 19.92 21182 24.44
1142 602681 376 76.43 21200 24.44
1143 602899 63 17.91 21218 24.34
1144 603505 284 49.41 21236 24.23
1145 603590 124 23.92 21254 24.44
1146 603687 131 24.54 21272 24.44
1147 604902 224 38.29 21290 24.34
1148 605482 334 61.44 21311 24.34
1149 605707 88 20.96 21329 24.44
1150 606296 312 55.68 21347 24.44
1151 606620 88 20.96 21365 24.23
1152 607294 568 189.84 21383 24.23
1153 607707 295 51.75 21401 24.44
1154 607788 414 93.93 21419 24.44
1155 608559 76 19.69 21437 24.12
1156 609072 131 24.54 21455 24.12
1157 609745 211 35.96 21473 24.23
1158 610121 419 97.20 21491 24.44
1159 610212 432 101.61 21509 24.23
1160 610509 79 20.03 21527 24.44
1161 610918 60 17.43 21546 24.44
1162 611360 172 29.49 21567 24.23
1163 611626 79 20.03 21585 24.12
1164 612028 521 150.31 21603 24.12
1165 612207 448 112.41 21621 23.48
1166 612698 204 34.73 21639 24.44
1167 613634 384 80.08 21662 24.44
1168 614108 60 17.43 21680 24.12
1169 614258 519 154.30 21698 24.34
1170 614785 67 18.51 21716 24.44
1171 615707 423 97.36 21734 24.34
1172 615869 161 27.93 21752 23.91
1173 616527 88 20.96 21770 24.34
1174 616693 451 113.08 21788 24.44
1175 617476 60 17.43 21806 24.44
1176 617584 647 246.69 21824 24.34
1177 617892 63 17.91 21845 24.44
1178 618361 515 147.53 21863 24.34
1179 618489 403 88.99 21881 24.44
1180 618696 270 46.71 21899 23.80
1181 620191 300 52.79 21917 24.23
1182 620464 159 27.66 21935 24.12
1183 621132 255 43.96 21953 24.23
1184 621496 415 95.00 21971 24.12
1185 621525 199 33.86 21989 24.44
1186 621879 135 24.92 22007 24.44
1187 621958 460 119.54 22025 24.44
1188 622338 76 19.69 22043 24.12
1189 623548 387 81.05 22061 24.44
1190 624034 120 23.58 22079 24.34
1191 624623 51 15.86 22098 24.34
1192 625108 184 31.36 22119 24.44
1193 625519 408 90.57 22137 24.34
1194 625981 419 97.20 22155 24.23
1195 626542 159 27.66 22173 24.34
1196 626991 143 25.74 22191 24.44
1197 627177 63 17.91 22209 24.44
1198 628232 415 95.00 22227 24.23
1199 629102 120 23.58 22245 24.12
1200 629157 177 30.25 22263 24.23
1201 629207 323 58.48 22281 23.48
1202 629985 483 132.60 22299 23.48
1203 631234 99 21.91 22317 24.44
1204 631341 312 55.68 22335 24.23
1205 635948 92 21.32 22353 24.44
1206 636140 63 17.91 22374 24.44
1207 636851 179 30.55 22392 24.34
1208 637524 655 252.34 22410 24.44
1209 637657 216 36.85 22428 24.44
1210 637847 462 120.87 22446 24.44
1211 637896 211 35.96 22464 24.44
1212 637992 655 252.34 22482 24.44
1213 639239 167 28.76 22500 24.44
1214 639612 376 76.43 22518 24.44
1215 640202 207 35.26 22536 24.44
1216 640627 112 22.94 22554 24.23
1217 640946 248 42.69 22572 24.44
1218 642314 323 58.48 22590 24.12
1219 643105 318 57.28 22608 24.44
1220 644553 124 23.92 22626 24.44
1221 645858 384 80.08 22648 24.44
1222 646197 169 29.05 22666 24.44
1223 646920 79 20.03 22684 24.44
1224 647087 231 39.55 22702 24.44
1225 647148 704 326.52 22720 24.44
1226 647362 211 35.96 22738 24.44
1227 647674 364 71.71 22756 24.44
1228 648432 391 82.35 22774 24.23
1229 648630 184 31.36 22792 24.44
1230 648772 467 121.56 22810 24.44
1231 648997 446 111.64 22828 24.44
1232 649202 115 23.18 22846 24.44
1233 649246 56 16.76 22864 24.44
1234 649357 286 49.78 22882 24.44
1235 649428 736 412.77 22900 24.44
1236 650030 156 27.28 22914 24.44
1237 650173 376 76.43 22932 24.34
1238 650360 248 42.69 22950 24.44
1239 650482 88 20.96 22968 24.34
1240 651040 417 95.20 22986 24.34
1241 651110 271 46.93 23004 24.44
1242 651174 56 16.76 23022 24.23
1243 651385 230 39.39 23040 24.44
1244 652579 209 35.61 23058 24.44
1245 653187 79 20.03 23076 24.23
1246 653265 71 19.06 23094 24.34
1247 653593 63 17.91 23112 24.44
1248 654219 65 18.22 23130 24.44
1249 654620 56 16.76 23148 24.44
1250 654901 423 97.36 23169 24.44
1251 655193 319 57.64 23188 24.23
1252 655482 113 23.02 23206 24.44
1253 655524 63 17.91 23224 24.44
1254 655619 463 119.23 23242 24.44
1255 655648 71 19.06 23260 24.44
1256 656864 110 22.78 23278 24.44
1257 657202 627 249.17 23296 24.23
1258 657559 192 32.67 23314 24.44
1259 658507 76 19.69 23332 24.44
1260 658850 65 18.22 23350 24.44
1261 659098 236 40.44 23368 24.44
1262 659706 127 24.18 23386 24.44
1263 659863 63 17.91 23404 24.44
1264 659956 167 28.76 23422 24.44
1265 660413 103 22.23 23443 24.44
1266 661790 369 73.42 23461 24.34
1267 661966 121 23.66 23479 24.44
1268 662405 449 112.05 23497 24.44
1269 663624 103 22.23 23515 24.44
1270 664021 51 15.86 23533 24.44
1271 665953 519 154.30 23551 24.44
1272 666912 542 168.67 23570 24.44
1273 667052 97 21.75 23588 24.44
1274 667072 384 80.08 23606 24.44
1275 667683 112 22.94 23624 24.44
1276 667723 195 33.17 23642 24.44
1277 668100 56 16.76 23660 24.44
1278 668710 396 85.28 23678 24.44
1279 669509 519 154.30 23696 24.44
1280 672047 206 35.07 23717 24.44
1281 672966 327 59.28 23736 24.44
1282 673661 179 30.55 23754 24.44
1283 673724 192 32.67 23772 24.44
1284 674268 480 130.21 23790 24.44
1285 674342 270 46.71 23808 24.44
1286 674577 179 30.55 23826 24.44
1287 674990 60 17.43 23844 24.44
1288 675610 71 19.06 23862 24.44
1289 676383 604 210.97 23880 24.44
1290 676531 88 20.96 23898 24.34
1291 676640 127 24.18 23916 24.44
1292 677026 65 18.22 23934 24.44
1293 677077 179 30.55 23952 24.44
1294 677143 127 24.18 23973 24.44
1295 677574 432 101.61 23991 24.44
1296 678314 67 18.51 24009 24.44
1297 678427 140 25.42 24027 24.34
1298 678710 399 87.30 24045 24.44
1299 678860 316 56.81 24063 24.44
1300 678923 207 35.26 24081 24.44
1301 679319 179 30.55 24099 24.44
1302 679777 259 44.69 24117 24.34
1303 680182 88 20.96 24135 24.44
1304 680603 359 69.86 24153 24.44
1305 680983 51 15.86 24171 24.44
1306 681959 71 19.06 24189 24.44
1307 682338 216 36.85 24207 24.44
1308 682481 240 41.21 24225 24.44
1309 683651 199 33.86 24246 24.44
1310 684615 263 45.37 24264 24.44
1311 686033 135 24.92 24283 24.44
1312 687037 399 87.30 24301 24.44
1313 687354 79 20.03 24319 24.44
1314 687425 56 16.76 24337 24.44
1315 687786 435 104.92 24355 24.44
1316 688017 120 23.58 24373 24.44
1317 688556 126 24.09 24391 24.44
1318 689559 195 33.17 24409 24.44
1319 689618 241 41.39 24427 24.44
1320 689770 188 32.01 24445 24.44
1321 691057 487 132.65 24463 24.44
1322 691263 67 18.51 24481 24.44
1323 691289 108 22.63 24499 24.44
1324 691568 108 22.63 24520 24.44
1325 691671 63 17.91 24538 24.44
1326 691934 70 18.93 24556 24.44
1327 692213 207 35.26 24574 24.44
1328 692364 401 87.91 24592 24.44
1329 692406 71 19.06 24610 24.44
1330 692934 199 33.86 24628 24.44
1331 693027 590 200.72 24646 24.44
1332 693201 160 27.80 24664 24.44
1333 693266 240 41.21 24682 24.44
1334 693849 368 72.93 24700 24.44
1335 694096 124 23.92 24718 24.44
1336 694524 103 22.23 24736 24.34
1337 695372 135 24.92 24754 24.44
1338 695559 195 33.17 24775 24.44
1339 695750 103 22.23 24793 24.44
1340 696094 368 72.93 24811 24.44
1341 696468 71 19.06 24829 24.44
1342 696690 88 20.96 24848 24.44
1343 697425 161 27.93 24866 24.44
1344 697676 81 20.25 24884 24.44
1345 698908 97 21.75 24902 24.44
1346 699277 127 24.18 24920 24.44
1347 699605 67 18.51 24938 24.44
1348 700087 56 16.76 24956 24.44
1349 700676 312 55.68 24974 24.44
1350 701725 252 43.42 24992 24.44
1351 702163 396 85.28 25010 24.44
1352 702190 88 20.96 25028 24.44
1353 703188 62 17.75 25049 24.44
1354 705507 92 21.32 25067 24.44
1355 705813 428 101.58 25085 24.44
1356 706255 108 22.63 25103 24.44
1357 706315 384 80.08 25121 24.44
1358 706747 103 22.23 25139 24.44
1359 706946 159 27.66 25157 24.44
1360 708117 56 16.76 25175 24.44
1361 708578 236 40.44 25193 24.44
1362 709070 92 21.32 25211 24.44
1363 709382 348 65.64 25229 24.44
1364 709846 352 66.89 25247 24.44
1365 710833 419 97.20 25265 24.44
1366 711026 156 27.28 25283 24.44
1367 711323 71 19.06 25301 24.44
1368 711407 88 20.96 25322 24.44
1369 712177 472 125.87 25340 24.44
1370 713068 176 30.09 25358 24.44
1371 713149 163 28.20 25376 24.44
1372 713559 286 49.78 25395 24.44
1373 713869 519 154.30 25413 24.44
1374 714334 231 39.55 25431 24.44
1375 714581 70 18.93 25449 24.44
1376 714656 211 35.96 25467 24.44
1377 714982 408 90.57 25485 24.44
1378 715082 127 24.18 25503 24.44
1379 715689 255 43.96 25521 24.44
1380 716132 671 277.06 25539 24.44
1381 716917 81 20.25 25557 24.44
1382 716979 161 27.93 25575 24.44
1383 717323 248 42.69 25596 24.44
1384 718128 380 78.12 25614 24.44
1385 718501 67 18.51 25632 24.44
1386 718607 81 20.25 25650 24.44
1387 718645 56 16.76 25668 24.44
1388 719134 112 22.94 25686 24.44
1389 720055 96 21.67 25704 24.44
1390 720285 384 80.08 25722 24.44
1391 720391 51 15.86 25740 24.44
1392 720767 83 20.46 25758 24.44
1393 721053 487 132.65 25776 24.44
1394 721234 89 21.05 25794 24.44
1395 721824 112 22.94 25812 24.44
1396 722864 636 231.85 25830 24.44
1397 723846 371 73.82 25851 24.44
1398 724994 56 16.76 25869 24.44
1399 725145 127 24.18 25887 24.44
1400 725181 240 41.21 25905 24.44
1401 726446 358 69.10 25923 24.44
1402 726797 120 23.58 25942 24.44
1403 726989 92 21.32 25960 24.44
1404 727685 121 23.66 25978 24.44
1405 728002 192 32.67 25996 24.44
1406 728332 71 19.06 26014 24.44
1407 728371 88 20.96 26032 24.44
1408 728538 67 18.51 26050 24.44
1409 729107 551 164.56 26068 24.44
1410 730531 96 21.67 26086 24.44
1411 730855 366 72.41 26104 24.44
1412 731346 273 47.25 26125 24.44
1413 731710 124 23.92 26143 24.44
1414 731787 88 20.96 26161 24.44
1415 732025 636 231.85 26184 24.44
1416 732106 63 17.91 26202 24.44
1417 734758 263 45.37 26221 24.44
1418 735038 231 39.55 26239 24.44
1419 735098 115 23.18 26257 24.44
1420 735345 352 66.89 26275 24.44
1421 735437 289 50.47 26293 24.44
1422 735610 115 23.18 26311 24.44
1423 735629 271 46.93 26329 24.44
1424 735760 192 32.67 26344 24.44
1425 736170 448 112.41 26362 24.44
1426 736192 120 23.58 26380 24.44
1427 736239 227 38.83 26401 24.44
1428 736814 65 18.22 26419 24.44
1429 736851 371 73.82 26438 24.44
1430 737334 195 33.17 26456 24.44
1431 738063 108 22.63 26474 24.44
1432 738401 51 15.86 26493 24.44
1433 738830 192 32.67 26511 24.44
1434 739015 302 53.30 26529 24.44
1435 739613 67 18.51 26547 24.44
1436 740088 224 38.29 26565 24.44
1437 740802 76 19.69 26583 24.44
1438 740924 268 46.26 26601 24.44
1439 741243 312 55.68 26619 24.44
1440 743348 127 24.18 26637 24.44
1441 743965 224 38.29 26658 24.44
1442 744093 76 19.69 26676 24.44
1443 744210 476 129.76 26694 24.44
1444 744531 227 38.83 26712 24.44
1445 744616 70 18.93 26730 24.44
1446 744958 184 31.36 26748 24.44
1447 745341 79 20.03 26766 24.44
1448 746629 231 39.55 26784 24.44
1449 746880 316 56.81 26802 24.44
1450 747232 335 61.77 26820 24.44
1451 748589 127 24.18 26838 24.44
1452 748668 467 121.56 26856 24.44
1453 750336 344 64.67 26874 24.44
1454 750692 79 20.03 26892 24.44
1455 751112 60 17.43 26910 24.44
1456 751273 428 101.58 26931 24.44
1457 751400 142 25.64 26949 24.44
1458 753406 204 34.73 26967 24.44
1459 753840 113 23.02 26985 24.44
1460 753879 131 24.54 27003 24.44
1461 754643 79 20.03 27021 24.44
1462 755090 419 97.20 27040 24.44
1463 755179 209 35.61 27058 24.44
1464 755290 56 16.76 27076 24.44
1465 755336 62 17.75 27094 24.44
1466 755810 163 28.20 27112 24.44
1467 755935 143 25.74 27130 24.44
1468 756390 176 30.09 27148 24.44
1469 757446 51 15.86 27166 24.44
1470 757876 423 97.36 27184 24.44
1471 758331 423 97.36 27205 24.44
1472 758843 63 17.91 27223 24.44
1473 759937 448 112.41 27241 24.44
1474 760071 472 125.87 27259 24.44
1475 760366 163 28.20 27277 24.44
1476 760430 448 112.41 27295 24.44
1477 760977 254 43.77 27313 24.44
1478 761527 204 34.73 27331 24.44
1479 762455 103 22.23 27349 24.44
1480 762780 120 23.58 27367 24.44
1481 763769 96 21.67 27385 24.44
1482 764451 79 20.03 27403 24.44
1483 765221 332 61.17 27421 24.44
1484 766937 92 21.32 27439 24.44
1485 767971 423 97.36 27457 24.44
1486 768474 49 15.48 27478 24.44
1487 768785 207 35.26 27496 24.44
1488 768898 344 64.67 27514 24.44
1489 769070 307 54.48 27532 24.44
1490 769223 312 55.68 27550 24.44
1491 769414 483 132.60 27568 24.44
1492 769563 49 15.48 27587 24.44
1493 769817 88 20.96 27605 24.44
1494 771301 60 17.43 27623 24.44
1495 771520 252 43.42 27641 24.44
1496 771790 344 64.67 27659 24.44
1497 772369 71 19.06 27677 24.44
1498 772405 428 101.58 27695 24.44
1499 772984 248 42.69 27713 24.44
1500 773951 78 19.92 27734 24.44
1501 774153 94 21.50 27752 24.44
1502 774955 71 19.06 27770 24.44
1503 775352 120 23.58 27788 24.44
1504 776055 88 20.96 27806 24.44
1505 776076 339 62.98 27824 24.44
1506 776792 419 97.20 27842 24.44
1507 776811 111 22.86 27860 24.44
1508 777018 263 45.37 27875 24.44
1509 777647 225 38.48 27893 24.44
1510 777861 79 20.03 27911 24.44
1511 778332 83 20.46 27929 24.44
1512 778417 167 28.76 27947 24.44
1513 779400 432 101.61 27965 24.44
1514 779495 65 18.22 27983 24.44
1515 780818 216 36.85 28004 24.44
1516 780868 159 27.66 28022 24.44
1517 781880 163 28.20 28040 24.44
1518 781961 408 90.57 28058 24.44
1519 782140 86 20.77 28076 24.44
1520 783041 51 15.86 28094 24.44
1521 783232 240 41.21 28112 24.44
1522 783453 56 16.76 28131 24.44
1523 784240 176 30.09 28149 24.44
1524 784272 88 20.96 28167 24.44
1525 784686 110 22.78 28185 24.44
1526 785120 224 38.29 28203 24.44
1527 785364 430 101.41 28221 24.44
1528 785846 366 72.41 28239 24.44
1529 785915 124 23.92 28257 24.44
1530 786227 127 24.18 28278 24.44
1531 786460 248 42.69 28296 24.44
1532 786616 113 23.02 28314 24.44
1533 787104 70 18.93 28332 24.44
1534 787393 94 21.50 28350 24.44
1535 787637 684 283.21 28368 24.44
1536 788374 399 87.30 28386 24.44
1537 788919 312 55.68 28404 24.44
1538 789023 359 69.86 28422 24.44
1539 789132 252 43.42 28440 24.44
1540 789404 78 19.92 28458 24.44
1541 790759 398 85.63 28476 24.44
1542 790887 79 20.03 28494 24.44
1543 790955 449 112.05 28512 24.44
1544 791063 428 101.58 28533 24.44
1545 791148 207 35.26 28551 24.44
1546 791423 384 80.08 28569 24.44
1547 791863 271 46.93 28587 24.44
1548 793813 63 17.91 28605 24.44
1549 794195 487 132.65 28623 24.44
1550 794346 199 33.86 28641 24.44
1551 795136 384 80.08 28659 24.44
1552 795177 184 31.36 28678 24.44
1553 795865 99 21.91 28696 24.44
1554 796771 108 22.63 28714 24.44
1555 797001 510 148.47 28732 24.44
1556 797704 222 37.96 28750 24.44
1557 797776 161 27.93 28768 24.44
1558 798236 108 22.63 28786 24.44
1559 798397 99 21.91 28807 24.44
1560 798467 176 30.09 28825 24.44
1561 799417 472 125.87 28843 24.44
1562 799932 121 23.66 28861 24.44
1563 800186 60 17.43 28879 24.44
1564 800787 243 41.74 28897 24.44
1565 800818 207 35.26 28915 24.44
1566 801145 252 43.42 28933 24.44
1567 801373 129 24.35 28951 24.44
1568 801598 304 53.73 28969 24.44
1569 802024 167 28.76 28987 24.44
1570 802460 67 18.51 29005 24.44
1571 802498 399 87.30 29023 24.44
1572 802702 60 17.43 29041 24.44
1573 803468 312 55.68 29059 24.44
1574 805291 103 22.23 29080 24.44
1575 806917 143 25.74 29098 24.44
1576 808328 262 45.24 29116 24.44
1577 808977 79 20.03 29134 24.44
1578 809213 127 24.18 29152 24.44
1579 809291 60 17.43 29171 24.44
1580 809427 448 112.41 29189 24.44
1581 809479 211 35.96 29207 24.44
1582 809619 49 15.48 29225 24.44
1583 810083 195 33.17 29244 24.44
1584 810135 56 16.76 29262 24.44
1585 810379 56 16.76 29280 24.44
1586 810485 127 24.18 29298 24.44
1587 810577 465 122.12 29316 24.44
1588 810645 271 46.93 29334 24.44
1589 811455 103 22.23 29348 24.44
1590 812059 572 183.73 29366 24.44
1591 812300 179 30.55 29384 24.44
1592 813221 433 104.37 29402 24.44
1593 814512 124 23.92 29420 24.44
1594 814631 112 22.94 29438 24.44
1595 815027 391 82.35 29456 24.44
1596 815075 412 92.93 29474 24.44
1597 816818 199 33.86 29492 24.44
1598 817682 56 16.76 29510 24.44
1599 818070 195 33.17 29528 24.44
1600 818103 159 27.66 29546 24.44
1601 818248 97 21.75 29564 24.44
1602 818969 483 132.60 29582 24.44
1603 819161 455 117.03 29603 24.44
1604 820336 112 22.94 29621 24.44
1605 820707 159 27.66 29639 24.44
1606 821369 112 22.94 29657 24.44
1607 822838 686 278.39 29675 24.44
1608 825422 76 19.69 29693 24.44
1609 825631 103 22.23 29711 24.44
1610 826272 211 35.96 29729 24.44
1611 826509 71 19.06 29747 24.44
1612 826842 319 57.64 29765 24.44
1613 827457 62 17.75 29784 24.44
1614 827936 508 144.95 29802 24.44
1615 828158 184 31.36 29820 24.44
1616 828264 65 18.22 29838 24.44
1617 829867 540 166.11 29856 24.44
1618 830089 284 49.41 29877 24.44
1619 830996 355 68.30 29895 24.44
1620 831612 195 33.17 29913 24.44
1621 831642 206 35.07 29931 24.44
1622 832488 67 18.51 29949 24.44
1623 832923 63 17.91 29967 24.44
1624 833076 384 80.08 29985 24.44
1625 833528 201 34.22 30003 24.44
1626 834381 88 20.96 30021 24.44
1627 834780 227 38.83 30039 24.44
1628 835132 408 90.57 30057 24.44
1629 835180 56 16.76 30075 24.44
1630 835479 263 45.37 30093 24.44
1631 836027 112 22.94 30111 24.44
1632 836763 83 20.46 30132 24.44
1633 837200 184 31.36 30150 24.44
1634 839028 112 22.94 30168 24.44
1635 840263 403 88.99 30186 24.44
1636 841664 231 39.55 30204 24.44
1637 842134 176 30.09 30222 24.44
1638 842423 304 53.73 30240 24.44
1639 842536 179 30.55 30258 24.44
1640 843096 396 85.28 30276 24.44
1641 843619 140 25.42 30294 24.44
1642 844384 480 130.21 30312 24.44
1643 844777 179 30.55 30331 24.44
1644 845638 224 38.29 30349 24.44
1645 845717 238 40.82 30367 24.44
1646 845912 179 30.55 30385 24.44
1647 847121 54 16.41 30406 24.44
1648 847190 103 22.23 30424 24.44
1649 848349 227 38.83 30442 24.44
1650 848821 543 164.77 30460 24.44
1651 849113 71 19.06 30478 24.44
1652 849440 124 23.92 30496 24.44
1653 849833 192 32.67 30514 24.44
1654 850024 371 73.82 30532 24.44
1655 850179 531 160.62 30550 24.44
1656 850361 176 30.09 30568 24.44
1657 851506 110 22.78 30586 24.44
1658 852359 110 22.78 30604 24.44
1659 852490 184 31.36 30622 24.44
1660 852827 176 30.09 30640 24.44
1661 853412 57 16.93 30658 24.44
1662 853473 216 36.85 30679 24.44
1663 853659 271 46.93 30818 24.44
1664 853787 56 16.76 30915 24.44
1665 853964 423 97.36 30933 24.44
1666 854270 486 135.98 30951 24.44
1667 854570 454 115.28 30969 24.44
1668 854693 62 17.75 30987 24.44
1669 856111 67 18.51 31005 24.44
1670 856594 99 21.91 31023 24.44
1671 857082 547 162.22 31041 24.44
1672 857316 312 55.68 31059 24.44
1673 858838 384 80.08 31077 24.44
1674 859535 358 69.10 31095 24.44
1675 860929 56 16.76 31113 24.44
1676 861071 327 59.28 31134 24.44
1677 862594 108 22.63 31152 24.44
1678 863186 71 19.06 31170 24.44
1679 863515 472 125.87 31188 24.44
1680 863777 56 16.76 31206 24.44
1681 863916 639 249.88 31224 24.44
1682 864015 67 18.51 31242 24.44
1683 864078 368 72.93 31260 24.44
1684 864239 159 27.66 31278 24.44
1685 864733 432 101.61 31296 24.44
1686 864855 65 18.22 31314 24.44
1687 864875 399 87.30 31332 24.44
1688 865979 369 73.42 31347 24.44
1689 866107 263 45.37 31365 24.44
1690 867792 57 16.93 31383 24.44
1691 868186 49 15.48 31404 24.44
1692 869430 156 27.28 31422 24.44
1693 869545 188 32.01 31440 24.44
1694 869949 319 57.64 31460 24.44
1695 870256 207 35.26 31478 24.44
1696 870387 220 37.58 31496 24.44
1697 871260 76 19.69 31514 24.44
1698 872172 384 80.08 31532 24.44
1699 874967 99 21.91 31550 24.44
1700 875355 51 15.86 31568 24.44
1701 875652 286 49.78 31586 24.44
1702 875896 105 22.39 31604 24.44
1703 876024 176 30.09 31622 24.44
1704 876135 88 20.96 31640 24.44
1705 876853 423 97.36 31658 24.44
1706 877134 448 112.41 31679 24.44
1707 877820 70 18.93 31697 24.44
1708 878299 56 16.76 31715 24.44
1709 878347 281 48.90 31733 24.44
1710 878579 198 33.69 31751 24.44
1711 879003 142 25.64 31769 24.44
1712 880014 124 23.92 31787 24.44
1713 880104 728 431.28 31805 24.44
1714 880281 497 142.37 31823 24.44
1715 882092 195 33.17 31841 24.44
1716 882671 96 21.67 31859 24.44
1717 882945 48 15.29 31877 24.44
1718 883842 76 19.69 31895 24.44
1719 884818 88 20.96 31913 24.44
1720 885213 127 24.18 31931 24.44
1721 886140 497 142.37 31952 24.44
1722 886267 432 101.61 31970 24.44
1723 886623 455 117.03 31988 24.44
1724 886835 280 48.67 32007 24.44
1725 886856 231 39.55 32025 24.44
1726 886984 110 22.78 32040 24.44
1727 887361 65 18.22 32058 24.44
1728 887546 455 117.03 32076 24.44
1729 888525 240 41.21 32094 24.44
1730 890212 255 43.96 32112 24.44
1731 890308 204 34.73 32130 24.44
1732 890468 71 19.06 32148 24.44
1733 890542 198 33.69 32166 24.44
1734 890603 120 23.58 32184 24.44
1735 890708 254 43.77 32205 24.44
1736 890793 67 18.51 32223 24.44
1737 891676 220 37.58 32241 24.44
1738 891936 248 42.69 32259 24.44
1739 892622 163 28.20 32277 24.44
1740 892994 112 22.94 32295 24.44
1741 893476 248 42.69 32313 24.44
1742 894712 120 23.58 32331 24.44
1743 895637 412 92.93 32349 24.44
1744 896100 163 28.20 32367 24.44
1745 896984 273 47.25 32385 24.44
1746 897336 430 101.41 32403 24.44
1747 897531 462 120.87 32421 24.44
1748 898088 527 155.96 32439 24.44
1749 898533 63 17.91 32457 24.44
1750 898714 281 48.90 32478 24.44
1751 899161 112 22.94 32496 24.44
1752 899604 316 56.81 32514 24.44
1753 900407 423 97.36 32532 24.44
1754 900465 435 104.92 32551 24.44
1755 900723 444 109.09 32569 24.44
1756 901153 254 43.77 32587 24.44
1757 901453 480 130.21 32605 24.44
1758 902370 366 72.41 32623 24.44
1759 902977 78 19.92 32641 24.44
1760 903264 60 17.43 32659 24.44
1761 904340 56 16.76 32677 24.44
1762 905544 254 43.77 32695 24.44
1763 905823 96 21.67 32713 24.44
1764 905888 156 27.28 32734 24.44
1765 906406 83 20.46 32752 24.44
1766 906438 120 23.58 32770 24.44
1767 907430 216 36.85 32788 24.44
1768 907514 71 19.06 32806 24.44
1769 908384 668 291.28 32824 24.44
1770 908548 81 20.25 32842 24.44
1771 909014 159 27.66 32860 24.44
1772 909769 76 19.69 32878 24.44
1773 910014 167 28.76 32896 24.44
1774 910253 51 15.86 32914 24.44
1775 910858 113 23.02 32932 24.44
1776 912187 252 43.42 32950 24.44
1777 912512 476 129.76 32968 24.44
1778 912570 120 23.58 32986 24.44
1779 912802 63 17.91 33007 24.44
1780 914079 71 19.06 33025 24.44
1781 916339 156 27.28 33043 24.44
1782 916462 193 32.84 33061 24.44
1783 916593 97 21.75 33079 24.44
1784 917248 70 18.93 33098 24.44
1785 917523 89 21.05 33116 24.44
1786 917868 63 17.91 33134 24.44
1787 918522 255 43.96 33152 24.44
1788 920474 120 23.58 33170 24.44
1789 920886 143 25.74 33188 24.44
1790 921095 110 22.78 33206 24.44
1791 921718 115 23.18 33224 24.44
1792 922813 63 17.91 33242 24.44
1793 922885 96 21.67 33260 24.44
1794 923407 326 59.13 33281 24.44
1795 923702 120 23.58 33299 24.44
1796 925246 63 17.91 33317 24.44
1797 925373 62 17.75 33335 24.44
1798 925555 481 129.57 33353 24.44
1799 925760 231 39.55 33371 24.44
1800 929740 460 119.54 33389 24.44
1801 929797 195 33.17 33407 24.44
1802 931084 108 22.63 33425 24.44
1803 931257 177 30.25 33443 24.44
1804 931557 572 183.73 33461 24.44
1805 931763 252 43.42 33479 24.44
1806 932068 67 18.51 33497 24.44
1807 932750 103 22.23 33515 24.44
1808 933257 415 95.00 33533 24.44
1809 933590 371 73.82 33554 24.44
1810 934557 96 21.67 33572 24.44
1811 935029 112 22.94 33590 24.44
1812 935272 49 15.48 33608 24.44
1813 935621 632 232.56 33626 24.44
1814 935743 83 20.46 33644 24.66
1815 935840 60 17.43 33663 24.44
1816 936072 88 20.96 33681 24.44
1817 936413 159 27.66 33699 24.44
1818 936695 51 15.86 33717 24.44
1819 937592 60 17.43 33735 24.44
1820 937679 152 26.78 33753 24.44
1821 938204 486 135.98 33771 24.44
1822 938447 161 27.93 33789 24.44
1823 939026 159 27.66 33810 24.44
1824 939649 103 22.23 33828 24.44
1825 939977 377 76.28 33846 24.44
1826 941860 56 16.76 33864 24.44
1827 942073 51 15.86 33882 24.44
1828 942217 96 21.67 33900 24.44
1829 942708 295 51.75 33918 24.98
1830 943378 56 16.76 33936 24.44
1831 944485 56 16.76 33954 24.44
1832 944655 481 129.57 33972 24.44
1833 945131 192 32.67 33990 25.20
1834 946818 254 43.77 34008 24.44
1835 947235 137 25.12 34026 24.98
1836 947375 478 129.43 34044 24.44
1837 948394 99 21.91 34062 24.44
1838 949274 307 54.48 34083 24.44
1839 949652 49 15.48 34101 24.44
1840 949803 449 112.05 34119 24.44
1841 950288 415 95.00 34137 24.44
1842 950563 159 27.66 34155 24.44
1843 950955 192 32.67 34173 24.44
1844 951151 81 20.25 34191 24.44
1845 951803 547 162.22 34210 24.44
1846 951838 56 16.76 34228 25.52
1847 952287 412 92.93 34246 24.44
1848 953498 312 55.68 34264 24.44
1849 954014 440 109.25 34282 24.44
1850 954124 174 29.79 34300 24.44
1851 954329 467 121.56 34318 24.87
1852 954359 120 23.58 34336 24.44
1853 955616 127 24.18 34357 24.44
1854 956367 71 19.06 34375 24.44
1855 958468 96 21.67 34393 24.44
1856 958988 195 33.17 34411 24.44
1857 959186 112 22.94 34429 24.44
1858 960802 527 155.96 34447 25.20
1859 961376 472 125.87 34465 24.44
1860 962055 76 19.69 34483 24.44
1861 962438 204 34.73 34501 25.20
1862 963404 399 87.30 34519 24.44
1863 964408 79 20.03 34537 24.44
1864 965508 103 22.23 34555 24.44
1865 966270 327 59.28 34573 25.20
1866 966521 449 112.05 34591 25.20
1867 966718 103 22.23 34612 24.44
1868 966995 54 16.41 34630 24.44
1869 967440 273 47.25 34648 24.44
1870 967641 67 18.51 34666 24.44
1871 967790 110 22.78 34684 25.41
1872 967892 62 17.75 34702 24.44
1873 968985 127 24.18 34720 24.44
1874 970633 449 112.05 34738 24.44
1875 972183 52 16.04 34757 24.44
1876 973174 71 19.06 34775 24.44
1877 973627 419 97.20 34793 24.44
1878 974536 76 19.69 34811 24.44
1879 974738 259 44.69 34829 24.44
1880 974960 76 19.69 34847 24.44
1881 975669 364 71.71 34865 24.44
1882 975994 56 16.76 34886 24.44
1883 977039 600 203.87 34904 24.98
1884 980556 71 19.06 34922 25.52
1885 981240 63 17.91 34940 24.44
1886 981611 131 24.54 34958 24.44
1887 981765 103 22.23 34976 24.44
1888 982358 198 33.69 34994 24.44
1889 983256 63 17.91 35012 24.98
1890 984582 67 18.51 35030 25.20
1891 984877 54 16.41 35048 24.44
1892 985286 57 16.93 35066 25.20
1893 985550 220 37.58 35084 24.44
1894 985690 56 16.76 35102 24.66
1895 986231 76 19.69 35120 25.20
1896 986723 387 81.05 35138 25.52
1897 989179 240 41.21 35159 25.52
1898 989506 295 51.75 35177 24.44
1899 990088 60 17.43 35195 24.44
1900 990286 334 61.44 35213 24.44
1901 991234 67 18.51 35231 25.73
1902 991291 225 38.48 35249 26.05
1903 991429 108 22.63 35267 24.44
1904 991831 76 19.69 35285 24.44
1905 991863 152 26.78 35304 24.44
1906 992420 380 78.12 35322 26.05
1907 992718 440 109.25 35340 24.44
1908 994209 230 39.39 35358 24.44
1909 994410 460 119.54 35376 26.05
1910 994434 88 20.96 35394 26.05
1911 994816 335 61.77 35417 25.52
1912 995977 435 104.92 35438 24.44
1913 996083 83 20.46 35456 26.05
1914 996466 56 16.76 35474 24.66
1915 997235 102 22.15 35492 25.52
1916 998251 531 160.62 35510 25.52
1917 998938 192 32.67 35528 24.44
1918 1000974 359 69.86 35546 24.98
1919 1001957 103 22.23 35564 26.05
1920 1002395 255 43.96 35582 25.52
1921 1003363 172 29.49 35600 24.44
1922 1003778 483 132.60 35618 24.44
1923 1004728 224 38.29 35636 24.98
1924 1004877 62 17.75 35654 24.44
1925 1004899 67 18.51 35672 24.98
1926 1005082 176 30.09 35701 24.44
1927 1005124 97 21.75 35719 24.44
1928 1005396 252 43.42 35737 25.52
1929 1005768 224 38.29 35755 25.73
1930 1005790 78 19.92 35773 26.05
1931 1005855 472 125.87 35791 25.52
1932 1006160 188 32.01 35809 24.98
1933 1006767 327 59.28 35827 24.44
1934 1007007 127 24.18 35846 26.05
1935 1007102 83 20.46 35864 24.44
1936 1008473 76 19.69 35882 24.98
1937 1008704 71 19.06 35900 24.44
1938 1008833 88 20.96 35918 26.05
1939 1010109 486 135.98 35936 24.44
1940 1010325 131 24.54 35954 24.44
1941 1010550 432 101.61 35975 24.66
1942 1010789 412 92.93 35993 25.73
1943 1010958 63 17.91 36011 24.44
1944 1011178 440 109.25 36029 24.98
1945 1012293 79 20.03 36047 24.44
1946 1012727 163 28.20 36065 25.52
1947 1014684 376 76.43 36083 24.98
1948 1015112 391 82.35 36101 24.98
1949 1015159 176 30.09 36119 24.98
1950 1015291 67 18.51 36137 24.44
1951 1015376 152 26.78 36155 24.44
1952 1016253 440 109.25 36173 24.44
1953 1016702 483 132.60 36191 24.44
1954 1016876 368 72.93 36209 24.44
1955 1017164 156 27.28 36230 24.44
1956 1017294 337 62.30 36248 26.05
1957 1018267 121 23.66 36266 24.44
1958 1018614 174 29.79 36284 25.52
1959 1018922 102 22.15 36302 26.05
1960 1018991 103 22.23 36320 25.52
1961 1019566 176 30.09 36338 26.05
1962 1020239 113 23.02 36356 24.66
1963 1020709 368 72.93 36374 24.87
1964 1021226 188 32.01 36393 24.44
1965 1022429 481 129.57 36411 25.52
1966 1022946 103 22.23 36429 24.66
1967 1023003 401 87.91 36447 24.44
1968 1023199 376 76.43 36465 24.44
1969 1023665 536 160.18 36486 26.05
1970 1023749 115 23.18 36504 26.05
1971 1024013 60 17.43 36522 26.05
1972 1024235 415 95.00 36540 26.05
1973 1024282 115 23.18 36558 24.44
1974 1024346 127 24.18 36576 24.98
1975 1024946 433 104.37 36594 26.05
1976 1024990 159 27.66 36612 24.44
1977 1025117 463 119.23 36630 24.44
1978 1025138 67 18.51 36648 26.05
1979 1027867 460 119.54 36666 24.98
1980 1028041 60 17.43 36684 24.44
1981 1028218 568 189.84 36702 24.66
1982 1029007 76 19.69 36720 24.98
1983 1029031 243 41.74 36741 24.66
1984 1030234 176 30.09 36757 26.05
1985 1030764 174 29.79 36775 24.44
1986 1031708 115 23.18 36793 24.98
1987 1032147 263 45.37 36811 24.66
1988 1033753 240 41.21 36829 25.52
1989 1034229 108 22.63 36847 24.44
1990 1034663 78 19.92 36865 26.05
1991 1036026 510 148.47 36883 24.44
1992 1037247 63 17.91 36901 25.20
1993 1037301 271 46.93 36919 25.73
1994 1037923 71 19.06 36938 24.66
1995 1038621 88 20.96 36956 25.73
1996 1039353 56 16.76 36974 24.98
1997 1040171 206 35.07 36995 24.44
1998 1040583 172 29.49 37013 25.52
1999 1041268 62 17.75 37031 25.52
2000 1041849 398 85.63 37049 25.73
2001 1041926 240 41.21 37067 26.05
2002 1043554 543 164.77 37085 24.66
2003 1043734 99 21.91 37103 24.44
2004 1044241 126 24.09 37121 24.44
2005 1044271 430 101.41 37139 24.66
2006 1044392 120 23.58 37157 26.05
2007 1044427 135 24.92 37175 25.20
2008 1044453 113 23.02 37193 26.05
2009 1044789 391 82.35 37211 24.98
2010 1045573 487 132.65 37229 24.44
2011 1045725 316 56.81 37247 25.52
2012 1046948 161 27.93 37268 26.05
2013 1047426 163 28.20 37286 26.05
2014 1047892 88 20.96 37304 26.05
2015 1048577 231 39.55 37322 25.73
2016 1048837 63 17.91 37340 26.05
2017 1049549 241 41.39 37358 26.05
2018 1049705 583 201.26 37376 26.05
2019 1049844 207 35.26 37394 25.52
2020 1051369 368 72.93 37412 25.52
2021 1051503 376 76.43 37430 26.05
2022 1052221 118 23.42 37448 26.05
2023 1052249 67 18.51 37466 26.05
2024 1052516 240 41.21 37485 24.44
2025 1053982 248 42.69 37503 26.05
2026 1054028 135 24.92 37524 24.44
2027 1054799 184 31.36 37542 25.52
2028 1054946 49 15.48 37560 26.05
2029 1055375 78 19.92 37578 26.05
2030 1057884 167 28.76 37596 26.05
2031 1058487 483 132.60 37614 25.20
2032 1058765 348 65.64 37632 26.05
2033 1059070 120 23.58 37650 24.98
2034 1059125 472 125.87 37668 24.44
2035 1060331 159 27.66 37686 25.73
2036 1060689 71 19.06 37704 24.44
2037 1061232 83 20.46 37722 25.20
2038 1061685 284 49.41 37740 26.05
2039 1061949 230 39.39 37758 25.20
2040 1063225 60 17.43 37779 25.20
2041 1063785 207 35.26 37797 25.73
2042 1065048 163 28.20 37815 26.05
2043 1066368 67 18.51 37833 26.05
2044 1066596 96 21.67 37851 26.05
2045 1066756 63 17.91 37869 25.52
2046 1067066 353 67.64 37887 26.05
2047 1067818 745 421.25 37905 24.66
2048 1068129 399 87.30 37923 26.05
2049 1068254 423 97.36 37941 26.05
2050 1068775 275 47.73 37959 24.66
2051 1069252 207 35.26 37977 26.05
2052 1069877 96 21.67 37995 26.05
2053 1070280 60 17.43 38013 24.98
2054 1070400 483 132.60 38032 26.05
2055 1070485 56 16.76 38053 26.05
2056 1070626 339 62.98 38071 26.05
2057 1071074 230 39.39 38089 26.05
2058 1071249 243 41.74 38107 26.05
2059 1073156 71 19.06 38125 25.20
2060 1073311 344 64.67 38143 26.05
2061 1073536 227 38.83 38161 26.05
2062 1075156 70 18.93 38179 25.52
2063 1075513 103 22.23 38197 24.87
2064 1079280 131 24.54 38215 26.05
2065 1080530 120 23.58 38233 26.05
2066 1080617 156 27.28 38251 26.05
2067 1080667 67 18.51 38269 25.52
2068 1080897 79 20.03 38287 26.05
2069 1080966 71 19.06 38308 25.52
2070 1081111 115 23.18 38326 25.73
2071 1081372 88 20.96 38344 25.73
2072 1081674 92 21.32 38362 26.05
2073 1082846 96 21.67 38380 26.05
2074 1083043 359 69.86 38398 26.05
2075 1085281 71 19.06 38416 26.05
2076 1085546 60 17.43 38434 24.66
2077 1085616 575 187.30 38452 26.05
2078 1086073 316 56.81 38470 26.05
2079 1086234 348 65.64 38488 26.05
2080 1086414 120 23.58 38506 26.05
2081 1086498 440 109.25 38524 26.05
2082 1086665 472 125.87 38542 26.05
2083 1088291 401 87.91 38563 26.05
2084 1088757 56 16.76 38582 26.05
2085 1089194 184 31.36 38600 26.05
2086 1089226 433 104.37 38618 26.05
2087 1089622 63 17.91 38636 26.05
2088 1089848 255 43.96 38654 26.05
2089 1090166 88 20.96 38672 25.52
2090 1090280 103 22.23 38690 26.05
2091 1090418 127 24.18 38708 26.05
2092 1090441 230 39.39 38726 26.05
2093 1090877 156 27.28 38744 26.05
2094 1091149 399 87.30 38762 26.05
2095 1091890 240 41.21 38780 26.05
2096 1092969 120 23.58 38798 26.05
2097 1093343 108 22.63 38819 26.05
2098 1094327 398 85.63 38837 26.05
2099 1094462 192 32.67 38855 26.05
2100 1094633 152 26.78 38873 26.05
2101 1095655 51 15.86 38891 26.05
2102 1096467 307 54.48 38909 25.73
2103 1097536 451 113.08 38927 26.05
2104 1098336 71 19.06 38945 26.05
2105 1098420 408 90.57 38963 26.05
2106 1098803 192 32.67 38981 26.05
2107 1099772 271 46.93 38999 26.05
2108 1100339 284 49.41 39017 26.05
2109 1100364 115 23.18 39035 26.05
2110 1101376 56 16.76 39053 26.05
2111 1101441 71 19.06 39071 26.05
2112 1101972 391 82.35 39092 26.05
2113 1102165 97 21.75 39110 26.05
2114 1102295 248 42.69 39129 26.05
2115 1102348 113 23.02 39147 26.05
2116 1102534 414 93.93 39165 26.05
2117 1102863 159 27.66 39183 26.05
2118 1103023 240 41.21 39201 26.05
2119 1103766 743 466.23 39219 26.05
2120 1104543 163 28.20 39237 26.05
2121 1105003 192 32.67 39255 26.05
2122 1105554 99 21.91 39273 26.05
2123 1105630 56 16.76 39291 26.05
2124 1105801 115 23.18 39309 26.05
2125 1106036 329 59.91 39327 26.05
2126 1106801 79 20.03 39348 26.05
2127 1107597 174 29.79 39366 26.05
2128 1108636 67 18.51 39384 26.05
2129 1109166 671 277.06 39402 26.05
2130 1110047 71 19.06 39420 26.05
2131 1110097 271 46.93 39438 26.05
2132 1110832 248 42.69 39456 26.27
2133 1110882 192 32.67 39474 26.05
2134 1110946 608 202.86 39492 26.05
2135 1111303 99 21.91 39510 26.05
2136 1112081 71 19.06 39528 26.05
2137 1112326 135 24.92 39546 26.05
2138 1112597 390 82.70 39564 26.05
2139 1114588 126 24.09 39582 26.05
2140 1114666 286 49.78 39603 26.05
2141 1115115 353 67.64 39621 26.05
2142 1116108 48 15.29 39639 26.05
2143 1116532 65 18.22 39657 26.05
2144 1116608 71 19.06 39676 26.05
2145 1117196 560 175.34 39694 26.05
2146 1117782 83 20.46 39712 26.05
2147 1118418 159 27.66 39730 26.05
2148 1118548 312 55.68 39748 26.05
2149 1118571 92 21.32 39766 26.05
2150 1119167 408 90.57 39784 26.05
2151 1119238 56 16.76 39802 26.05
2152 1119326 192 32.67 39820 26.05
2153 1119859 96 21.67 39838 26.05
2154 1119879 67 18.51 39856 26.05
2155 1120439 199 33.86 39877 26.05
2156 1121893 414 93.93 39895 26.05
2157 1122522 131 24.54 39918 26.05
2158 1124759 399 87.30 39936 26.05
2159 1125555 280 48.67 39954 26.05
2160 1126617 176 30.09 39972 26.05
2161 1126679 332 61.17 39990 26.05
2162 1126704 70 18.93 40008 26.05
2163 1126978 120 23.58 40026 26.27
2164 1128108 124 23.92 40044 26.05
2165 1128246 291 50.97 40062 26.05
2166 1128480 280 48.67 40080 26.05
2167 1129079 457 118.95 40098 26.05
2168 1129440 179 30.55 40116 26.05
2169 1129806 120 23.58 40137 26.05
2170 1130384 440 109.25 40155 26.05
2171 1130553 216 36.85 40173 26.05
2172 1131856 192 32.67 40191 26.05
2173 1132213 353 67.64 40209 26.05
2174 1133291 240 41.21 40228 26.05
2175 1133633 158 27.53 40246 26.05
2176 1134259 83 20.46 40264 26.05
2177 1136934 231 39.55 40282 26.05
2178 1137532 88 20.96 40300 26.05
2179 1137847 112 22.94 40318 26.05
2180 1138308 204 34.73 40336 26.05
2181 1138504 376 76.43 40354 26.05
2182 1138987 51 15.86 40372 26.05
2183 1139211 280 48.67 40393 26.05
2184 1139356 167 28.76 40411 26.05
2185 1140022 415 95.00 40429 26.05
2186 1140118 96 21.67 40447 26.05
2187 1140273 159 27.66 40465 26.05
2188 1140667 60 17.43 40483 26.05
2189 1140932 83 20.46 40501 26.05
2190 1141282 487 132.65 40519 26.05
2191 1142751 671 277.06 40537 26.05
2192 1143063 97 21.75 40555 26.05
2193 1143441 92 21.32 40573 26.05
2194 1143587 344 64.67 40591 26.05
2195 1144576 192 32.67 40609 26.05
2196 1144605 167 28.76 40627 26.05
2197 1144768 216 36.85 40645 26.05
2198 1145048 243 41.74 40666 26.05
2199 1145822 240 41.21 40684 26.05
2200 1146300 60 17.43 40702 26.05
2201 1146963 408 90.57 40720 26.05
2202 1147210 103 22.23 40738 26.05
2203 1147772 211 35.96 40756 26.05
2204 1148205 51 15.86 40775 26.05
2205 1148408 312 55.68 40793 26.05
2206 1148494 70 18.93 40811 26.05
2207 1149261 79 20.03 40829 26.48
2208 1150652 216 36.85 40847 26.05
2209 1151258 216 36.85 40865 26.27
2210 1151797 448 112.41 40883 26.05
2211 1152812 384 80.08 40901 26.27
2212 1153080 167 28.76 40922 26.05
2213 1153423 115 23.18 40940 26.27
2214 1153761 440 109.25 40958 26.05
2215 1153907 231 39.55 40976 26.05
2216 1154417 102 22.15 40994 26.05
2217 1156134 512 144.44 41012 26.05
2218 1156622 327 59.28 41029 26.05
2219 1156954 88 20.96 41047 26.48
2220 1157352 540 166.11 41065 26.05
2221 1157886 120 23.58 41083 26.05
2222 1158837 679 318.29 41101 26.05
2223 1159198 227 38.83 41119 26.48
2224 1159855 287 50.23 41137 26.05
2225 1160101 401 87.91 41155 26.48
2226 1160308 428 101.58 41176 26.05
2227 1160788 143 25.74 41194 26.27
2228 1160950 480 130.21 41212 26.05
2229 1161057 60 17.43 41230 26.05
2230 1161408 120 23.58 41248 26.48
2231 1162104 280 48.67 41266 26.05
2232 1162762 216 36.85 41284 26.05
2233 1163406 188 32.01 41302 26.05
2234 1163545 56 16.76 41321 26.27
2235 1164362 312 55.68 41339 26.48
2236 1165722 56 16.76 41357 26.05
2237 1165958 380 78.12 41375 26.27
2238 1166067 344 64.67 41393 26.05
2239 1166533 63 17.91 41411 26.27
2240 1167259 255 43.96 41432 26.05
2241 1167507 112 22.94 41450 26.48
2242 1167577 472 125.87 41468 26.05
2243 1168732 207 35.26 41486 26.05
2244 1168953 147 26.19 41504 26.05
2245 1169677 56 16.76 41522 26.05
2246 1174589 110 22.78 41540 26.48
2247 1174801 99 21.91 41558 26.48
2248 1175460 76 19.69 41576 26.05
2249 1175716 167 28.76 41594 26.48
2250 1175996 241 41.39 41612 26.27
2251 1176448 412 92.93 41630 26.48
2252 1176614 319 57.64 41648 26.05
2253 1176757 118 23.42 41666 26.70
2254 1176975 240 41.21 41684 26.05
2255 1177222 248 42.69 41705 26.05
2256 1177616 287 50.23 41723 26.05
2257 1177706 156 27.28 41741 26.27
2258 1177760 668 291.28 41759 26.05
2259 1178200 63 17.91 41777 26.27
2260 1178322 103 22.23 41795 26.05
2261 1179095 81 20.25 41813 26.05
2262 1179194 472 125.87 41831 26.05
2263 1180097 480 130.21 41849 26.70
2264 1180608 184 31.36 41868 26.05
2265 1180948 63 17.91 41886 26.48
2266 1181301 76 19.69 41904 26.05
2267 1181500 92 21.32 41922 26.27
2268 1183191 419 97.20 41940 26.27
2269 1183577 353 67.64 41961 26.05
2270 1184035 112 22.94 41979 26.05
2271 1184268 62 17.75 41997 26.27
2272 1185125 371 73.82 42015 26.27
2273 1186566 110 22.78 42033 26.27
2274 1186677 463 119.23 42051 26.05
2275 1186827 126 24.09 42069 26.27
2276 1187475 110 22.78 42087 26.05
2277 1187654 71 19.06 42105 26.05
2278 1188117 112 22.94 42123 26.05
2279 1188310 99 21.91 42141 26.27
2280 1188700 112 22.94 42159 26.05
2281 1191001 110 22.78 42177 26.70
2282 1191194 88 20.96 42195 26.05
2283 1191461 254 43.77 42216 26.05
2284 1191617 135 24.92 42234 26.27
2285 1191862 248 42.69 42252 26.70
2286 1192996 79 20.03 42270 26.48
2287 1195082 575 187.30 42288 26.70
2288 1195474 335 61.77 42306 26.05
2289 1196766 240 41.21 42324 26.70
2290 1197606 472 125.87 42342 26.70
2291 1197931 600 203.87 42360 26.48
2292 1199286 71 19.06 42378 26.70
2293 1199425 415 95.00 42396 26.27
2294 1199604 56 16.76 42414 26.48
2295 1199718 83 20.46 42433 26.05
2296 1200484 78 19.92 42451 26.70
2297 1201018 156 27.28 42472 26.05
2298 1201161 71 19.06 42490 26.48
2299 1201277 255 43.96 42508 26.05
2300 1201408 391 82.35 42526 26.70
2301 1201879 127 24.18 42544 26.05
2302 1202606 248 42.69 42562 26.05
2303 1202789 51 15.86 42580 26.05
2304 1205052 145 25.96 42598 26.27
2305 1206389 83 20.46 42616 26.05
2306 1207529 126 24.09 42634 26.48
2307 1208177 225 38.48 42652 26.70
2308 1208694 71 19.06 42670 26.48
2309 1209575 195 33.17 42688 26.48
2310 1211128 252 43.42 42706 26.05
2311 1211244 348 65.64 42724 26.48
2312 1211268 108 22.63 42745 26.70
2313 1211284 76 19.69 42760 26.48
2314 1211833 377 76.28 42782 26.70
2315 1212088 369 73.42 42800 26.05
2316 1212477 63 17.91 42818 26.27
2317 1212530 455 117.03 42836 26.05
2318 1212803 624 242.54 42854 26.70
2319 1213471 188 32.01 42872 26.27
2320 1214465 184 31.36 42890 26.27
2321 1215390 295 51.75 42908 26.70
2322 1215829 56 16.76 42926 26.48
2323 1216946 135 24.92 42944 26.05
2324 1217696 441 109.77 42962 26.70
2325 1217932 51 15.86 42981 26.48
2326 1220971 319 57.64 43002 26.70
2327 1221040 449 112.05 43020 26.48
2328 1221783 184 31.36 43038 26.48
2329 1223361 76 19.69 43056 26.27
2330 1223594 96 21.67 43074 26.27
2331 1224152 88 20.96 43092 26.48
2332 1224215 71 19.06 43110 26.70
2333 1224398 124 23.92 43128 26.05
2334 1225294 88 20.96 43146 26.70
2335 1225442 366 72.41 43164 26.27
2336 1226321 147 26.19 43182 26.27
2337 1226573 430 101.41 43200 26.48
2338 1227298 56 16.76 43218 26.27
2339 1227525 414 93.93 43236 26.70
2340 1228619 192 32.67 43257 26.70
2341 1228932 158 27.53 43275 26.70
2342 1229822 248 42.69 43293 26.70
2343 1229896 99 21.91 43311 26.70
2344 1230252 94 21.50 43329 26.05
2345 1230673 396 85.28 43347 26.70
2346 1230874 176 30.09 43365 26.27
2347 1231054 275 47.73 43383 26.27
2348 1231180 387 81.05 43401 26.48
2349 1231365 167 28.76 43419 26.70
2350 1231496 110 22.78 43437 26.70
2351 1231521 455 117.03 43455 26.48
2352 1232613 89 21.05 43473 26.27
2353 1233037 568 189.84 43491 26.70
2354 1233558 192 32.67 43509 26.27
2355 1235759 63 17.91 43531 26.27
2356 1236222 147 26.19 43549 26.27
2357 1236614 476 129.76 43567 26.70
2358 1237497 408 90.57 43585 26.70
2359 1239484 120 23.58 43603 26.70
2360 1240684 451 113.08 43621 26.70
2361 1241008 135 24.92 43639 26.70
2362 1241534 295 51.75 43657 26.48
2363 1242328 190 32.33 43675 26.70
2364 1242543 179 30.55 43693 26.91
2365 1244839 391 82.35 43711 26.27
2366 1245739 110 22.78 43729 26.91
2367 1246266 391 82.35 43747 26.70
2368 1246428 135 24.92 43765 26.70
2369 1246764 192 32.67 43786 26.48
2370 1247207 705 364.03 43804 26.70
2371 1248005 268 46.26 43822 26.91
2372 1249882 56 16.76 43840 26.70
2373 1251222 67 18.51 43858 26.27
2374 1251520 67 18.51 43876 26.27
2375 1253110 192 32.67 43894 26.91
2376 1253140 462 120.87 43912 26.91
2377 1253432 71 19.06 43930 26.48
2378 1254457 380 78.12 43948 26.70
2379 1255424 184 31.36 43966 26.70
2380 1255659 376 76.43 43984 26.48
2381 1255892 227 38.83 44002 26.70
2382 1258627 88 20.96 44020 26.70
2383 1259328 48 15.29 44041 27.13
2384 1260386 335 61.77 44059 26.70
2385 1260733 56 16.76 44078 26.70
2386 1260753 51 15.86 44096 26.70
2387 1261340 262 45.24 44111 26.48
2388 1261818 432 101.61 44129 26.91
2389 1263146 460 119.54 44147 26.48
2390 1264349 96 21.67 44165 27.13
2391 1264628 199 33.86 44183 26.70
2392 1265215 390 82.70 44201 26.70
2393 1267662 135 24.92 44219 26.70
2394 1267840 273 47.25 44237 26.91
2395 1268218 192 32.67 44255 26.70
2396 1271893 319 57.64 44273 26.91
2397 1272208 112 22.94 44294 27.13
2398 1272721 335 61.77 44312 26.70
2399 1273076 472 125.87 44330 26.91
2400 1273108 263 45.37 44348 26.70
2401 1273649 284 49.41 44366 26.70
2402 1279053 224 38.29 44384 26.48
2403 1280001 179 30.55 44402 26.70
2404 1280421 60 17.43 44426 26.48
2405 1281582 96 21.67 44634 27.13
2406 1281635 60 17.43 44653 26.70
2407 1281669 65 18.22 44671 26.70
2408 1282304 56 16.76 44690 26.91
2409 1282352 510 148.47 44708 26.27
2410 1283227 103 22.23 44726 26.70
2411 1284581 206 35.07 44744 26.70
2412 1286153 312 55.68 44765 26.70
2413 1286809 195 33.17 44783 26.91
2414 1287466 88 20.96 44801 26.70
2415 1288623 67 18.51 44819 26.91
2416 1289297 124 23.92 44837 26.70
2417 1290122 71 19.06 44855 26.91
2418 1290439 300 52.79 44873 27.13
2419 1290633 79 20.03 44891 26.70
2420 1291063 377 76.28 44909 26.70
2421 1293109 143 25.74 44927 26.70
2422 1293273 56 16.76 44945 27.13
2423 1296001 131 24.54 44963 26.70
2424 1296768 463 119.23 44981 26.70
2425 1300418 408 90.57 44999 26.91
2426 1301155 408 90.57 45020 26.70
2427 1302240 209 35.61 45038 27.34
2428 1302287 519 154.30 45056 27.13
2429 1302902 467 121.56 45074 26.70
2430 1303893 83 20.46 45092 26.70
2431 1304037 108 22.63 45110 26.70
2432 1304119 126 24.09 45128 27.34
2433 1304359 127 24.18 45146 26.70
2434 1304439 62 17.75 45164 27.34
2435 1304650 172 29.49 45184 26.70
2436 1305710 271 46.93 45202 27.13
2437 1306129 124 23.92 45220 26.70
2438 1306311 415 95.00 45238 26.70
2439 1306562 135 24.92 45256 26.70
2440 1306774 179 30.55 45277 27.13
2441 1307291 487 132.65 45295 26.70
2442 1307318 131 24.54 45313 26.70
2443 1307620 96 21.67 45332 26.70
2444 1308143 60 17.43 45350 26.70
2445 1308334 127 24.18 45368 26.70
2446 1310497 481 129.57 45386 27.34
2447 1311355 62 17.75 45404 26.70
2448 1311693 60 17.43 45422 26.70
2449 1312914 152 26.78 45440 26.70
2450 1313868 483 132.60 45458 26.70
2451 1313936 472 125.87 45476 26.70
2452 1314241 176 30.09 45494 26.91
2453 1314666 63 17.91 45512 26.70
2454 1314820 89 21.05 45530 27.02
2455 1315184 188 32.01 45544 26.81
2456 1315244 65 18.22 45562 26.70
2457 1317235 323 58.48 45580 26.70
2458 1320118 423 97.36 45598 26.70
2459 1320254 280 48.67 45616 27.13
2460 1320562 327 59.28 45634 26.70
2461 1321374 419 97.20 45652 26.70
2462 1321464 70 18.93 45670 26.70
2463 1321651 515 147.53 45688 26.70
2464 1321690 348 65.64 45706 26.70
2465 1321738 88 20.96 45724 26.81
2466 1321792 417 95.20 45743 26.70
2467 1321887 161 27.93 45761 27.13
2468 1323102 67 18.51 45779 27.13
2469 1324265 216 36.85 45800 26.91
2470 1324323 368 72.93 45818 26.91
2471 1324666 526 158.17 45836 27.34
2472 1325675 108 22.63 45854 26.70
2473 1326461 140 25.42 45872 27.13
2474 1328361 152 26.78 45890 26.70
2475 1328970 455 117.03 45908 27.02
2476 1329024 312 55.68 45926 27.34
2477 1329117 620 217.12 45944 26.91
2478 1329165 120 23.58 45962 27.34
2479 1329418 112 22.94 45980 26.81
2480 1331433 1023 2152.99 45998 27.34
2481 1331558 376 76.43 46016 27.13
2482 1332144 152 26.78 46034 26.91
2483 1332389 204 34.73 46055 27.34
2484 1332546 62 17.75 46073 26.81
2485 1332981 56 16.76 46091 27.02
2486 1333113 652 262.10 46109 27.13
2487 1333156 124 23.92 46127 27.13
2488 1334590 177 30.25 46145 26.91
2489 1334922 99 21.91 46163 27.13
2490 1334976 327 59.28 46181 26.70
2491 1336330 199 33.86 46199 26.81
2492 1336925 380 78.12 46217 26.81
2493 1337074 143 25.74 46235 27.13
2494 1337479 444 109.09 46253 26.81
2495 1337579 56 16.76 46271 27.34
2496 1337669 335 61.77 46290 27.13
2497 1337829 408 90.57 46311 27.34
2498 1338439 51 15.86 46329 27.34
2499 1338540 120 23.58 46347 26.91
2500 1338981 454 115.28 46365 26.81
2501 1339795 96 21.67 46383 26.70
2502 1340078 280 48.67 46401 27.13
2503 1341744 312 55.68 46419 27.24
2504 1344442 350 66.46 46437 27.34
2505 1345190 172 29.49 46455 27.34
2506 1345982 79 20.03 46473 26.70
2507 1347499 63 17.91 46491 27.24
2508 1348189 99 21.91 46509 26.91
2509 1348365 451 113.08 46527 27.02
2510 1349996 287 50.23 46545 27.34
2511 1350269 440 109.25 46566 27.34
2512 1351270 135 24.92 46584 27.34
2513 1351450 369 73.42 46602 27.13
2514 1351527 71 19.06 46620 27.34
2515 1351851 412 92.93 46638 27.34
2516 1351895 414 93.93 46656 27.13
2517 1353015 335 61.77 46674 27.24
2518 1353711 432 101.61 46692 26.70
2519 1355170 167 28.76 46710 27.34
2520 1355582 127 24.18 46728 27.34
2521 1356168 97 21.75 46746 27.34
2522 1356224 172 29.49 46764 27.34
2523 1357240 163 28.20 46782 26.91
2524 1358144 419 97.20 46800 27.13
2525 1359482 542 168.67 46818 27.13
2526 1359704 403 88.99 46840 26.91
2527 1362516 135 24.92 46858 27.34
2528 1362730 483 132.60 46876 27.02
2529 1365359 71 19.06 46894 27.34
2530 1366187 135 24.92 46912 27.34
2531 1367309 472 125.87 46930 27.34
2532 1367562 92 21.32 46948 27.34
2533 1368504 99 21.91 46966 27.34
2534 1369291 350 66.46 46984 27.34
2535 1369367 81 20.25 47002 27.34
2536 1371182 163 28.20 47020 27.13
2537 1371208 192 32.67 47038 27.34
2538 1371477 207 35.26 47056 27.34
2539 1372532 227 38.83 47074 27.34
2540 1372993 391 82.35 47095 27.34
2541 1373577 440 109.25 47113 27.34
2542 1374690 71 19.06 47131 27.34
2543 1374885 127 24.18 47149 27.34
2544 1375252 179 30.55 47167 27.34
2545 1375789 227 38.83 47185 27.13
2546 1376846 49 15.48 47203 27.34
2547 1377245 88 20.96 47221 27.34
2548 1377827 527 155.96 47239 27.34
2549 1378153 408 90.57 47257 27.34
2550 1378176 480 130.21 47275 27.34
2551 1379323 127 24.18 47293 27.34
2552 1379667 88 20.96 47311 27.34
2553 1379780 199 33.86 47329 27.34
2554 1380209 275 47.73 47350 27.34
2555 1380263 455 117.03 47368 27.34
2556 1380742 403 88.99 47387 27.34
2557 1381033 399 87.30 47405 27.34
2558 1381503 99 21.91 47423 27.34
2559 1382615 399 87.30 47441 27.34
2560 1383919 56 16.76 47459 27.34
2561 1384398 483 132.60 47477 27.24
2562 1386960 56 16.76 47495 27.34
2563 1387391 79 20.03 47513 27.34
2564 1388159 241 41.39 47531 27.34
2565 1389030 415 95.00 47549 27.34
2566 1389192 132 24.63 47567 27.34
2567 1390148 369 73.42 47585 27.34
2568 1390263 71 19.06 47606 27.34
2569 1392111 88 20.96 47624 27.34
2570 1392428 63 17.91 47642 27.34
2571 1392957 241 41.39 47660 27.34
2572 1393136 67 18.51 47678 27.34
2573 1394914 572 183.73 47696 27.34
2574 1395100 211 35.96 47714 27.34
2575 1395226 359 69.86 47732 27.34
2576 1397064 152 26.78 47750 27.34
2577 1397279 384 80.08 47768 27.34
2578 1399417 102 22.15 47786 27.34
2579 1400231 145 25.96 47804 27.34
2580 1400321 96 21.67 47822 27.13
2581 1400565 345 64.98 47840 27.34
2582 1401644 64 18.06 47858 27.34
2583 1402994 67 18.51 47878 27.34
2584 1403358 179 30.55 47896 27.34
2585 1403539 376 76.43 47914 27.34
2586 1403745 124 23.92 47933 27.34
2587 1403957 417 95.20 47951 27.34
2588 1404161 217 37.04 47969 27.34
2589 1404489 174 29.79 47987 27.34
2590 1404680 79 20.03 48005 27.34
2591 1405024 271 46.93 48023 27.34
2592 1405640 172 29.49 48041 27.34
2593 1406498 48 15.29 48059 27.34
2594 1406720 287 50.23 48077 27.34
2595 1407401 209 35.61 48095 27.34
2596 1407524 423 97.36 48113 27.34
2597 1407848 73 19.32 48134 27.34
2598 1408122 127 24.18 48152 27.34
2599 1409650 204 34.73 48170 27.34
2600 1410118 300 52.79 48188 27.34
2601 1410199 73 19.32 48206 27.34
2602 1411242 206 35.07 48224 27.34
2603 1411465 184 31.36 48242 27.34
2604 1412253 199 33.86 48260 27.34
2605 1412723 112 22.94 48278 27.34
2606 1412903 96 21.67 48296 27.34
2607 1413610 127 24.18 48314 27.34
2608 1413949 268 46.26 48332 27.34
2609 1414054 480 130.21 48350 27.34
2610 1414411 103 22.23 48368 27.34
2611 1415109 135 24.92 48389 27.34
2612 1416015 120 23.58 48407 27.34
2613 1416385 184 31.36 48425 27.34
2614 1416667 204 34.73 48443 27.34
2615 1416967 71 19.06 48461 27.34
2616 1417379 67 18.51 48480 27.34
2617 1417754 166 28.62 48498 27.34
2618 1418014 172 29.49 48516 27.34
2619 1418676 243 41.74 48534 27.34
2620 1419070 193 32.84 48552 27.34
2621 1420001 428 101.58 48570 27.34
2622 1420364 51 15.86 48588 27.34
2623 1422498 444 109.09 48606 27.34
2624 1422592 348 65.64 48624 27.34
2625 1424220 49 15.48 48642 27.34
2626 1424727 81 20.25 48663 27.34
2627 1426171 62 17.75 48681 27.34
2628 1427327 467 121.56 48699 27.34
2629 1427715 56 16.76 48717 27.34
2630 1427772 440 109.25 48735 27.34
2631 1428169 193 32.84 48753 27.34
2632 1428685 480 130.21 48771 27.34
2633 1428865 353 67.64 48789 27.34
2634 1429171 204 34.73 48807 27.34
2635 1430347 353 67.64 48825 27.34
2636 1430475 56 16.76 48843 27.34
2637 1431133 207 35.26 48861 27.34
2638 1431828 76 19.69 48879 27.34
2639 1432663 159 27.66 48897 27.34
2640 1432802 483 132.60 48918 27.34
2641 1433156 568 189.84 48936 27.34
2642 1433281 368 72.93 48954 27.34
2643 1434742 102 22.15 48972 27.34
2644 1434919 327 59.28 48990 27.34
2645 1438121 124 23.92 49008 27.34
2646 1438150 199 33.86 49027 27.34
2647 1438184 108 22.63 49045 27.34
2648 1439304 88 20.96 49063 27.34
2649 1440154 231 39.55 49081 27.34
2650 1440394 152 26.78 49099 27.34
2651 1441574 209 35.61 49117 27.34
2652 1442281 711 380.66 49141 27.34
2653 1443073 166 28.62 49159 27.34
2654 1443501 99 21.91 49180 27.34
2655 1446239 207 35.26 49198 27.34
2656 1447009 60 17.43 49216 27.34
2657 1447353 56 16.76 49234 27.34
2658 1448189 248 42.69 49252 27.34
2659 1448870 319 57.64 49270 27.34
2660 1448952 295 51.75 49288 27.34
2661 1448994 159 27.66 49306 27.34
2662 1450459 263 45.37 49324 27.34
2663 1451361 230 39.39 49342 27.34
2664 1454145 92 21.32 49360 27.34
2665 1455600 79 20.03 49378 27.34
2666 1456174 192 32.67 49396 27.34
2667 1458878 115 23.18 49414 27.34
2668 1460068 96 21.67 49432 27.34
2669 1460318 156 27.28 49446 27.34
2670 1460474 627 249.17 49464 27.34
2671 1461757 463 119.23 49482 27.34
2672 1462041 102 22.15 49500 27.34
2673 1462314 391 82.35 49518 27.34
2674 1463190 81 20.25 49536 27.34
2675 1464235 440 109.25 49554 27.34
2676 1465922 184 31.36 49572 27.34
2677 1466087 110 22.78 49591 27.34
2678 1466230 159 27.66 49609 27.34
2679 1466293 736 412.77 49627 27.34
2680 1466389 600 203.87 49645 27.34
2681 1466942 190 32.33 49663 27.34
2682 1467250 142 25.64 49681 27.34
2683 1469513 121 23.66 49702 27.34
2684 1470170 63 17.91 49720 27.34
2685 1470281 174 29.79 49738 27.34
2686 1470504 67 18.51 49756 27.34
2687 1471477 99 21.91 49774 27.34
2688 1471701 455 117.03 49792 27.34
2689 1471816 127 24.18 49810 27.34
2690 1472021 668 291.28 49828 27.34
2691 1472246 56 16.76 49846 27.34
2692 1472497 384 80.08 49864 27.34
2693 1473067 56 16.76 49882 27.34
2694 1473139 60 17.43 49900 27.34
2695 1473610 455 117.03 49918 27.34
2696 1475356 352 66.89 49936 27.34
2697 1475936 62 17.75 49957 27.34
2698 1476122 51 15.86 49975 27.34
2699 1477448 108 22.63 49993 27.34
2700 1477848 120 23.58 50011 27.34
2701 1478530 89 21.05 50029 27.34
2702 1478570 140 25.42 50047 27.34
2703 1480230 83 20.46 50065 27.34
2704 1481591 220 37.58 50083 27.34
2705 1481728 79 20.03 50101 27.34
2706 1482414 56 16.76 50119 27.34
2707 1484933 284 49.41 50138 27.34
2708 1487269 467 121.56 50156 27.34
2709 1488064 63 17.91 50174 27.34
2710 1488262 403 88.99 50192 27.34
2711 1488310 60 17.43 50213 27.34
2712 1488674 63 17.91 50231 27.34
2713 1488880 152 26.78 50249 27.34
2714 1488982 268 46.26 50267 27.34
2715 1490162 121 23.66 50285 27.34
2716 1490639 83 20.46 50303 27.34
2717 1490823 62 17.75 50321 27.34
2718 1491186 207 35.26 50339 27.34
2719 1491522 78 19.92 50357 27.34
2720 1492642 419 97.20 50375 27.34
2721 1492778 88 20.96 50393 27.34
2722 1494272 49 15.48 50411 27.34
2723 1495322 131 24.54 50429 27.34
2724 1496660 224 38.29 50447 27.34
2725 1496858 56 16.76 50465 27.34
2726 1496929 142 25.64 50486 27.34
2727 1497103 387 81.05 50504 27.34
2728 1497299 63 17.91 50522 27.34
2729 1497627 355 68.30 50540 27.34
2730 1499061 88 20.96 50558 27.34
2731 1499135 275 47.73 50576 27.34
2732 1499306 192 32.67 50594 27.34
2733 1499931 371 73.82 50612 27.34
2734 1500160 271 46.93 50630 27.34
2735 1501671 51 15.86 50648 27.34
2736 1501699 583 201.26 50666 27.34
2737 1501936 231 39.55 50685 27.34
2738 1504552 79 20.03 50703 27.34
2739 1504946 366 72.41 50721 27.34
2740 1505236 376 76.43 50742 27.34
2741 1505343 60 17.43 50760 27.34
2742 1505986 96 21.67 50778 27.34
2743 1506615 204 34.73 50796 27.34
2744 1507105 63 17.91 50814 27.34
2745 1507469 79 20.03 50832 27.34
2746 1507717 255 43.96 50850 27.34
2747 1508021 391 82.35 50868 27.34
2748 1508563 60 17.43 50886 27.34
2749 1508858 127 24.18 50904 27.34
2750 1509565 76 19.69 50922 27.34
2751 1509595 103 22.23 50940 27.34
2752 1509725 159 27.66 50958 27.34
2753 1510407 240 41.21 50976 27.34
2754 1511069 364 71.71 50997 27.34
2755 1512340 174 29.79 51015 27.34
2756 1512750 195 33.17 51033 27.34
2757 1513094 159 27.66 51051 27.34
2758 1513241 300 52.79 51069 27.34
2759 1513331 96 21.67 51087 27.34
2760 1513724 120 23.58 51105 27.34
2761 1514150 494 141.37 51123 27.34
2762 1514663 56 16.76 51141 27.34
2763 1516490 412 92.93 51159 27.34
2764 1518166 419 97.20 51177 27.34
2765 1518610 465 122.12 51195 27.34
2766 1519679 268 46.26 51213 27.34
2767 1520380 96 21.67 51232 27.34
2768 1520909 399 87.30 51250 27.34
2769 1521457 163 28.20 51271 27.34
2770 1521843 135 24.92 51289 27.34
2771 1522214 67 18.51 51307 27.34
2772 1522501 71 19.06 51325 27.34
2773 1522867 385 80.11 51343 27.34
2774 1523423 595 212.63 51361 27.34
2775 1523524 287 50.23 51379 27.34
2776 1523679 63 17.91 51397 27.34
2777 1524192 88 20.96 51415 27.34
2778 1524365 344 64.67 51433 27.34
2779 1524774 307 54.48 51451 27.34
2780 1524970 135 24.92 51469 27.34
2781 1525070 368 72.93 51487 27.34
2782 1525376 158 27.53 51505 27.34
2783 1526177 280 48.67 51526 27.34
2784 1526201 481 129.57 51544 27.34
2785 1526758 92 21.32 51562 27.34
2786 1528159 96 21.67 51580 27.34
2787 1528383 92 21.32 51598 27.34
2788 1528426 71 19.06 51616 27.34
2789 1528755 118 23.42 51634 27.34
2790 1530408 56 16.76 51652 27.34
2791 1532066 88 20.96 51670 27.34
2792 1532518 184 31.36 51688 27.34
2793 1532877 465 122.12 51706 27.34
2794 1533090 399 87.30 51724 27.34
2795 1533917 62 17.75 51742 27.34
2796 1535658 417 95.20 51760 27.34
2797 1536277 440 109.25 51782 27.34
2798 1536384 120 23.58 51800 27.34
2799 1536745 71 19.06 51818 27.34
2800 1537258 240 41.21 51836 27.34
2801 1538511 582 193.83 51854 27.34
2802 1539487 131 24.54 51872 27.34
2803 1539514 387 81.05 51890 27.34
2804 1539954 127 24.18 51908 27.34
2805 1540252 88 20.96 51926 27.34
2806 1540350 188 32.01 51944 27.34
2807 1541510 472 125.87 51962 27.34
2808 1542776 376 76.43 51980 27.34
2809 1543322 56 16.76 51998 27.34
2810 1544249 143 25.74 52016 27.34
2811 1544504 287 50.23 52034 27.34
2812 1544920 108 22.63 52055 27.34
2813 1548439 472 125.87 52073 27.34
2814 1548754 110 22.78 52091 27.34
2815 1549330 519 154.30 52109 27.34
2816 1551619 195 33.17 52127 27.34
2817 1552157 415 95.00 52145 27.34
2818 1553520 334 61.44 52163 27.34
2819 1554154 97 21.75 52181 27.34
2820 1556467 115 23.18 52199 27.34
2821 1557722 403 88.99 52217 27.34
2822 1562027 56 16.76 52235 27.34
2823 1563265 99 21.91 52253 27.34
2824 1563906 143 25.74 52271 27.34
2825 1564110 399 87.30 52289 27.34
2826 1564173 159 27.66 52310 27.34
2827 1564335 240 41.21 52329 27.34
2828 1564365 56 16.76 52347 27.34
2829 1564805 335 61.77 52365 27.34
2830 1565130 92 21.32 52383 27.34
2831 1565663 147 26.19 52401 27.34
2832 1565761 444 109.09 52419 27.34
2833 1565873 96 21.67 52437 27.34
2834 1566273 156 27.28 52455 27.34
2835 1566519 252 43.42 52473 27.34
2836 1566576 67 18.51 52491 27.34
2837 1566726 217 37.04 52509 27.34
2838 1567052 241 41.39 52527 27.34
2839 1567843 135 24.92 52545 27.34
2840 1568105 224 38.29 52574 27.34
2841 1569574 270 46.71 52592 27.34
2842 1569848 156 27.28 52610 27.34
2843 1570354 335 61.77 52628 27.34
2844 1570464 113 23.02 52646 27.34
2845 1570629 134 24.82 52664 27.34
2846 1570833 152 26.78 52682 27.34
2847 1570911 108 22.63 52700 27.34
2848 1572478 224 38.29 52718 27.34
2849 1573216 135 24.92 52736 27.34
2850 1574395 76 19.69 52754 27.34
2851 1574710 88 20.96 52772 27.34
2852 1575924 568 189.84 52790 27.34
2853 1576155 348 65.64 52808 27.34
2854 1577597 243 41.74 52829 27.34
2855 1577670 435 104.92 52847 27.34
2856 1577937 140 25.42 52866 27.34
2857 1578036 263 45.37 52884 27.34
2858 1578323 719 344.94 52902 27.34
2859 1578613 398 85.63 52920 27.34
2860 1578732 204 34.73 52938 27.34
2861 1578924 224 38.29 52956 27.34
2862 1579304 376 76.43 52974 27.34
2863 1581181 428 101.58 52992 27.34
2864 1581872 216 36.85 53010 27.34
2865 1582356 51 15.86 53028 27.34
2866 1584179 56 16.76 53046 27.34
2867 1584869 76 19.69 53064 27.34
2868 1585169 192 32.67 53082 27.34
2869 1585418 275 47.73 53103 27.34
2870 1586279 135 24.92 53121 27.34
2871 1586332 524 150.73 53139 27.34
2872 1589966 255 43.96 53157 27.34
2873 1589990 135 24.92 53175 27.34
2874 1590374 352 66.89 53193 27.34
